# Theta (deg), Enclosed Intensity, Normalized Enclosed Intensity
0.00000000 0.00000000 0.00000000
0.10000000 0.00000000 0.00000000
0.20000000 0.00000000 0.00000000
0.30000000 0.00000000 0.00000000
0.40000000 0.00000000 0.00000000
0.50000000 0.00000000 0.00000000
0.60000000 0.00000000 0.00000000
0.70000000 3.97329928 0.00592949
0.80000000 4.09349064 0.00610886
0.90000000 4.09349064 0.00610886
1.00000000 4.09349064 0.00610886
1.10000000 4.09349064 0.00610886
1.20000000 4.09349064 0.00610886
1.30000000 4.09349064 0.00610886
1.40000000 12.07656704 0.01802229
1.50000000 12.07656704 0.01802229
1.60000000 12.07656704 0.01802229
1.70000000 12.07656704 0.01802229
1.80000000 12.07656704 0.01802229
1.90000000 19.12889112 0.02854672
2.00000000 19.12889112 0.02854672
2.10000000 19.12889112 0.02854672
2.20000000 19.12889112 0.02854672
2.30000000 19.15296072 0.02858264
2.40000000 19.15296072 0.02858264
2.50000000 19.15296072 0.02858264
2.60000000 19.15296072 0.02858264
2.70000000 19.15296072 0.02858264
2.80000000 23.12625100 0.03451212
2.90000000 23.12625100 0.03451212
3.00000000 35.00971696 0.05224623
3.10000000 35.00971696 0.05224623
3.20000000 42.95595608 0.06410468
3.30000000 42.98804840 0.06415257
3.40000000 42.98804840 0.06415257
3.50000000 50.93341920 0.07600973
3.60000000 50.93341920 0.07600973
3.70000000 50.93341920 0.07600973
3.80000000 53.05132816 0.07917036
3.90000000 53.05132816 0.07917036
4.00000000 53.05132816 0.07917036
4.10000000 53.05132816 0.07917036
4.20000000 53.05132816 0.07917036
4.30000000 53.05132816 0.07917036
4.40000000 53.05683812 0.07917858
4.50000000 53.05683812 0.07917858
4.60000000 53.05683812 0.07917858
4.70000000 53.05683812 0.07917858
4.80000000 53.05683812 0.07917858
4.90000000 53.05683812 0.07917858
5.00000000 53.05683812 0.07917858
5.10000000 53.13549516 0.07929597
5.20000000 53.13549516 0.07929597
5.30000000 53.13549516 0.07929597
5.40000000 53.13549516 0.07929597
5.50000000 53.13549516 0.07929597
5.60000000 61.08122644 0.09115366
5.70000000 68.99691716 0.10296652
5.80000000 68.99691716 0.10296652
5.90000000 68.99691716 0.10296652
6.00000000 80.90673508 0.12073996
6.10000000 96.78727924 0.14443906
6.20000000 96.78727924 0.14443906
6.30000000 96.78727924 0.14443906
6.40000000 96.78727924 0.14443906
6.50000000 96.78727924 0.14443906
6.60000000 96.78727924 0.14443906
6.70000000 96.78727924 0.14443906
6.80000000 96.79287692 0.14444741
6.90000000 104.45113308 0.15587610
7.00000000 104.45113308 0.15587610
7.10000000 104.45113308 0.15587610
7.20000000 104.45113308 0.15587610
7.30000000 104.45113308 0.15587610
7.40000000 104.45113308 0.15587610
7.50000000 104.45113308 0.15587610
7.60000000 104.45113308 0.15587610
7.70000000 111.12612172 0.16583742
7.80000000 111.12612172 0.16583742
7.90000000 111.12612172 0.16583742
8.00000000 118.94639700 0.17750789
8.10000000 118.95051196 0.17751403
8.20000000 118.95051196 0.17751403
8.30000000 118.95051196 0.17751403
8.40000000 118.95051196 0.17751403
8.50000000 118.95051196 0.17751403
8.60000000 118.95051196 0.17751403
8.70000000 118.95051196 0.17751403
8.80000000 118.95051196 0.17751403
8.90000000 118.95051196 0.17751403
9.00000000 126.85328860 0.18930762
9.10000000 126.85328860 0.18930762
9.20000000 158.56783052 0.23663634
9.30000000 170.46590524 0.25439226
9.40000000 170.46590524 0.25439226
9.50000000 170.46590524 0.25439226
9.60000000 170.46590524 0.25439226
9.70000000 170.46590524 0.25439226
9.80000000 177.86736524 0.26543772
9.90000000 177.86736524 0.26543772
10.00000000 177.86736524 0.26543772
10.10000000 177.86736524 0.26543772
10.20000000 177.86736524 0.26543772
10.30000000 177.86736524 0.26543772
10.40000000 177.86736524 0.26543772
10.50000000 177.86736524 0.26543772
10.60000000 177.86736524 0.26543772
10.70000000 177.86736524 0.26543772
10.80000000 177.86736524 0.26543772
10.90000000 185.51189940 0.27684592
11.00000000 185.51189940 0.27684592
11.10000000 185.51189940 0.27684592
11.20000000 185.51189940 0.27684592
11.30000000 185.51189940 0.27684592
11.40000000 185.51189940 0.27684592
11.50000000 185.51189940 0.27684592
11.60000000 185.56934612 0.27693165
11.70000000 201.07876484 0.30007691
11.80000000 201.07876484 0.30007691
11.90000000 201.07876484 0.30007691
12.00000000 201.07876484 0.30007691
12.10000000 203.68345228 0.30396397
12.20000000 203.80224012 0.30414124
12.30000000 203.80224012 0.30414124
12.40000000 203.80224012 0.30414124
12.50000000 211.65205788 0.31585580
12.60000000 211.70058444 0.31592822
12.70000000 211.70058444 0.31592822
12.80000000 211.70058444 0.31592822
12.90000000 211.70058444 0.31592822
13.00000000 211.70058444 0.31592822
13.10000000 239.38409948 0.35724130
13.20000000 255.22287884 0.38087807
13.30000000 255.22287884 0.38087807
13.40000000 255.22287884 0.38087807
13.50000000 255.22287884 0.38087807
13.60000000 255.22287884 0.38087807
13.70000000 255.22287884 0.38087807
13.80000000 255.22287884 0.38087807
13.90000000 255.22287884 0.38087807
14.00000000 255.22287884 0.38087807
14.10000000 255.22287884 0.38087807
14.20000000 255.22287884 0.38087807
14.30000000 255.22287884 0.38087807
14.40000000 255.22287884 0.38087807
14.50000000 255.22287884 0.38087807
14.60000000 255.22876500 0.38088685
14.70000000 255.22876500 0.38088685
14.80000000 255.22876500 0.38088685
14.90000000 255.22876500 0.38088685
15.00000000 255.22876500 0.38088685
15.10000000 255.22876500 0.38088685
15.20000000 270.12531572 0.40311750
15.30000000 270.12531572 0.40311750
15.40000000 270.12531572 0.40311750
15.50000000 270.12531572 0.40311750
15.60000000 270.12531572 0.40311750
15.70000000 270.12531572 0.40311750
15.80000000 270.12911932 0.40312318
15.90000000 270.12911932 0.40312318
16.00000000 275.22257508 0.41072432
16.10000000 275.22257508 0.41072432
16.20000000 275.22257508 0.41072432
16.30000000 275.22257508 0.41072432
16.40000000 282.89732628 0.42217762
16.50000000 282.89732628 0.42217762
16.60000000 282.89732628 0.42217762
16.70000000 282.89732628 0.42217762
16.80000000 282.89732628 0.42217762
16.90000000 290.63127532 0.43371926
17.00000000 290.63127532 0.43371926
17.10000000 290.68079252 0.43379316
17.20000000 290.68079252 0.43379316
17.30000000 290.68079252 0.43379316
17.40000000 306.29504996 0.45709486
17.50000000 306.29504996 0.45709486
17.60000000 314.12593012 0.46878116
17.70000000 314.12593012 0.46878116
17.80000000 321.99031284 0.48051746
17.90000000 333.80508900 0.49814906
18.00000000 333.80508900 0.49814906
18.10000000 333.95135204 0.49836734
18.20000000 333.95135204 0.49836734
18.30000000 333.95486436 0.49837258
18.40000000 333.95486436 0.49837258
18.50000000 333.95486436 0.49837258
18.60000000 333.95486436 0.49837258
18.70000000 333.96336452 0.49838526
18.80000000 333.96336452 0.49838526
18.90000000 333.96336452 0.49838526
19.00000000 333.96336452 0.49838526
19.10000000 333.96336452 0.49838526
19.20000000 333.96336452 0.49838526
19.30000000 333.96336452 0.49838526
19.40000000 333.96336452 0.49838526
19.50000000 333.96336452 0.49838526
19.60000000 340.68120876 0.50841054
19.70000000 340.68120876 0.50841054
19.80000000 340.68120876 0.50841054
19.90000000 340.68120876 0.50841054
20.00000000 340.68120876 0.50841054
20.10000000 340.68977356 0.50842332
20.20000000 340.68977356 0.50842332
20.30000000 340.68977356 0.50842332
20.40000000 340.68977356 0.50842332
20.50000000 340.68977356 0.50842332
20.60000000 354.78095212 0.52945208
20.70000000 354.78095212 0.52945208
20.80000000 354.78095212 0.52945208
20.90000000 354.78095212 0.52945208
21.00000000 354.78095212 0.52945208
21.10000000 354.78095212 0.52945208
21.20000000 354.78095212 0.52945208
21.30000000 354.78095212 0.52945208
21.40000000 362.03724108 0.54028089
21.50000000 362.03724108 0.54028089
21.60000000 362.03959276 0.54028440
21.70000000 362.03959276 0.54028440
21.80000000 362.03959276 0.54028440
21.90000000 362.05098476 0.54030140
22.00000000 369.45754892 0.55135448
22.10000000 369.78528188 0.55184357
22.20000000 369.78528188 0.55184357
22.30000000 369.78528188 0.55184357
22.40000000 372.97185492 0.55659900
22.50000000 372.97185492 0.55659900
22.60000000 372.97185492 0.55659900
22.70000000 372.97185492 0.55659900
22.80000000 372.97185492 0.55659900
22.90000000 372.97185492 0.55659900
23.00000000 372.97185492 0.55659900
23.10000000 372.97323452 0.55660106
23.20000000 380.61377204 0.56800330
23.30000000 380.61377204 0.56800330
23.40000000 388.30094748 0.57947515
23.50000000 388.30094748 0.57947515
23.60000000 388.30094748 0.57947515
23.70000000 396.05615036 0.59104851
23.80000000 403.83668700 0.60265968
23.90000000 415.53936108 0.62012399
24.00000000 415.53936108 0.62012399
24.10000000 415.53936108 0.62012399
24.20000000 415.53936108 0.62012399
24.30000000 415.53936108 0.62012399
24.40000000 415.53936108 0.62012399
24.50000000 415.53936108 0.62012399
24.60000000 415.53936108 0.62012399
24.70000000 415.53936108 0.62012399
24.80000000 415.53936108 0.62012399
24.90000000 415.53936108 0.62012399
25.00000000 415.54135620 0.62012696
25.10000000 420.29411588 0.62721968
25.20000000 420.29690244 0.62722383
25.30000000 420.29690244 0.62722383
25.40000000 420.29690244 0.62722383
25.50000000 420.29690244 0.62722383
25.60000000 420.29690244 0.62722383
25.70000000 420.29690244 0.62722383
25.80000000 420.29690244 0.62722383
25.90000000 420.29690244 0.62722383
26.00000000 420.30370348 0.62723398
26.10000000 420.30370348 0.62723398
26.20000000 420.30370348 0.62723398
26.30000000 420.30370348 0.62723398
26.40000000 420.30370348 0.62723398
26.50000000 420.30370348 0.62723398
26.60000000 420.30370348 0.62723398
26.70000000 420.30370348 0.62723398
26.80000000 420.30370348 0.62723398
26.90000000 420.30370348 0.62723398
27.00000000 420.30370348 0.62723398
27.10000000 420.30370348 0.62723398
27.20000000 420.30370348 0.62723398
27.30000000 420.30370348 0.62723398
27.40000000 420.30370348 0.62723398
27.50000000 420.30370348 0.62723398
27.60000000 420.30370348 0.62723398
27.70000000 420.30370348 0.62723398
27.80000000 420.30370348 0.62723398
27.90000000 420.30370348 0.62723398
28.00000000 420.30370348 0.62723398
28.10000000 438.94577860 0.65505421
28.20000000 438.94577860 0.65505421
28.30000000 438.94577860 0.65505421
28.40000000 438.94577860 0.65505421
28.50000000 438.94577860 0.65505421
28.60000000 438.94577860 0.65505421
28.70000000 438.94577860 0.65505421
28.80000000 438.94577860 0.65505421
28.90000000 438.94577860 0.65505421
29.00000000 438.94577860 0.65505421
29.10000000 438.94577860 0.65505421
29.20000000 438.94577860 0.65505421
29.30000000 438.94577860 0.65505421
29.40000000 438.94577860 0.65505421
29.50000000 438.94577860 0.65505421
29.60000000 438.94577860 0.65505421
29.70000000 438.94577860 0.65505421
29.80000000 445.80673076 0.66529305
29.90000000 448.22685588 0.66890468
30.00000000 448.22685588 0.66890468
30.10000000 448.22685588 0.66890468
30.20000000 448.22685588 0.66890468
30.30000000 448.22685588 0.66890468
30.40000000 455.28504900 0.67943787
30.50000000 455.28504900 0.67943787
30.60000000 455.28504900 0.67943787
30.70000000 455.28504900 0.67943787
30.80000000 455.28504900 0.67943787
30.90000000 455.28504900 0.67943787
31.00000000 455.28504900 0.67943787
31.10000000 455.28504900 0.67943787
31.20000000 469.93403044 0.70129906
31.30000000 469.93403044 0.70129906
31.40000000 469.93403044 0.70129906
31.50000000 469.93403044 0.70129906
31.60000000 469.93403044 0.70129906
31.70000000 469.93403044 0.70129906
31.80000000 477.71347668 0.71290860
31.90000000 489.12041916 0.72993159
32.00000000 489.12041916 0.72993159
32.10000000 489.12041916 0.72993159
32.20000000 489.12041916 0.72993159
32.30000000 489.12041916 0.72993159
32.40000000 489.12041916 0.72993159
32.50000000 489.12041916 0.72993159
32.60000000 489.12041916 0.72993159
32.70000000 489.12041916 0.72993159
32.80000000 489.12041916 0.72993159
32.90000000 489.12041916 0.72993159
33.00000000 489.12041916 0.72993159
33.10000000 489.12041916 0.72993159
33.20000000 489.12041916 0.72993159
33.30000000 489.12041916 0.72993159
33.40000000 489.12041916 0.72993159
33.50000000 489.12041916 0.72993159
33.60000000 489.12041916 0.72993159
33.70000000 489.12041916 0.72993159
33.80000000 489.12041916 0.72993159
33.90000000 489.12041916 0.72993159
34.00000000 489.12041916 0.72993159
34.10000000 489.12041916 0.72993159
34.20000000 489.12041916 0.72993159
34.30000000 489.12041916 0.72993159
34.40000000 489.12041916 0.72993159
34.50000000 489.12041916 0.72993159
34.60000000 489.12041916 0.72993159
34.70000000 489.12041916 0.72993159
34.80000000 489.12041916 0.72993159
34.90000000 489.12041916 0.72993159
35.00000000 489.12041916 0.72993159
35.10000000 489.12041916 0.72993159
35.20000000 489.12041916 0.72993159
35.30000000 489.12041916 0.72993159
35.40000000 489.12041916 0.72993159
35.50000000 489.12041916 0.72993159
35.60000000 489.12041916 0.72993159
35.70000000 489.12041916 0.72993159
35.80000000 489.12041916 0.72993159
35.90000000 489.12041916 0.72993159
36.00000000 489.12041916 0.72993159
36.10000000 489.12041916 0.72993159
36.20000000 489.12041916 0.72993159
36.30000000 489.12041916 0.72993159
36.40000000 489.12041916 0.72993159
36.50000000 489.12041916 0.72993159
36.60000000 489.12041916 0.72993159
36.70000000 489.12041916 0.72993159
36.80000000 489.12041916 0.72993159
36.90000000 489.12041916 0.72993159
37.00000000 489.12041916 0.72993159
37.10000000 489.12041916 0.72993159
37.20000000 489.12041916 0.72993159
37.30000000 489.12041916 0.72993159
37.40000000 489.12041916 0.72993159
37.50000000 489.13390540 0.72995171
37.60000000 489.13390540 0.72995171
37.70000000 489.13390540 0.72995171
37.80000000 489.13390540 0.72995171
37.90000000 489.13390540 0.72995171
38.00000000 489.13390540 0.72995171
38.10000000 489.13390540 0.72995171
38.20000000 489.13390540 0.72995171
38.30000000 489.13390540 0.72995171
38.40000000 489.13390540 0.72995171
38.50000000 489.13390540 0.72995171
38.60000000 489.13390540 0.72995171
38.70000000 489.13390540 0.72995171
38.80000000 489.13390540 0.72995171
38.90000000 489.13390540 0.72995171
39.00000000 489.13390540 0.72995171
39.10000000 489.13390540 0.72995171
39.20000000 489.13390540 0.72995171
39.30000000 489.13390540 0.72995171
39.40000000 489.13390540 0.72995171
39.50000000 489.13390540 0.72995171
39.60000000 489.13390540 0.72995171
39.70000000 489.13390540 0.72995171
39.80000000 489.13390540 0.72995171
39.90000000 489.13390540 0.72995171
40.00000000 489.13390540 0.72995171
40.10000000 489.13390540 0.72995171
40.20000000 489.13390540 0.72995171
40.30000000 489.13390540 0.72995171
40.40000000 489.13390540 0.72995171
40.50000000 489.13390540 0.72995171
40.60000000 489.13390540 0.72995171
40.70000000 489.13390540 0.72995171
40.80000000 489.13390540 0.72995171
40.90000000 489.13390540 0.72995171
41.00000000 499.20732924 0.74498464
41.10000000 499.20732924 0.74498464
41.20000000 499.20732924 0.74498464
41.30000000 499.20732924 0.74498464
41.40000000 499.20732924 0.74498464
41.50000000 499.20732924 0.74498464
41.60000000 499.20732924 0.74498464
41.70000000 499.20732924 0.74498464
41.80000000 499.20732924 0.74498464
41.90000000 499.20732924 0.74498464
42.00000000 504.94397316 0.75354563
42.10000000 504.94397316 0.75354563
42.20000000 504.94397316 0.75354563
42.30000000 504.94397316 0.75354563
42.40000000 505.37545588 0.75418955
42.50000000 505.37545588 0.75418955
42.60000000 511.55800636 0.76341599
42.70000000 511.55800636 0.76341599
42.80000000 511.55800636 0.76341599
42.90000000 511.55800636 0.76341599
43.00000000 511.55800636 0.76341599
43.10000000 524.61309276 0.78289855
43.20000000 524.61309276 0.78289855
43.30000000 524.61309276 0.78289855
43.40000000 528.00626596 0.78796230
43.50000000 528.00626596 0.78796230
43.60000000 528.00626596 0.78796230
43.70000000 528.00626596 0.78796230
43.80000000 535.14723892 0.79861903
43.90000000 542.41240612 0.80946109
44.00000000 542.41240612 0.80946109
44.10000000 542.41240612 0.80946109
44.20000000 542.41240612 0.80946109
44.30000000 542.41240612 0.80946109
44.40000000 542.41240612 0.80946109
44.50000000 542.41240612 0.80946109
44.60000000 542.41453780 0.80946427
44.70000000 542.41453780 0.80946427
44.80000000 542.41453780 0.80946427
44.90000000 542.41453780 0.80946427
45.00000000 542.41453780 0.80946427
45.10000000 542.41453780 0.80946427
45.20000000 542.41453780 0.80946427
45.30000000 542.41453780 0.80946427
45.40000000 542.41453780 0.80946427
45.50000000 542.41453780 0.80946427
45.60000000 542.41453780 0.80946427
45.70000000 542.41453780 0.80946427
45.80000000 542.41453780 0.80946427
45.90000000 542.41453780 0.80946427
46.00000000 542.41453780 0.80946427
46.10000000 542.41453780 0.80946427
46.20000000 542.41453780 0.80946427
46.30000000 542.41453780 0.80946427
46.40000000 542.41453780 0.80946427
46.50000000 542.41453780 0.80946427
46.60000000 542.41453780 0.80946427
46.70000000 542.41453780 0.80946427
46.80000000 542.41453780 0.80946427
46.90000000 542.41453780 0.80946427
47.00000000 542.41896596 0.80947088
47.10000000 542.41896596 0.80947088
47.20000000 542.41896596 0.80947088
47.30000000 542.41896596 0.80947088
47.40000000 542.41896596 0.80947088
47.50000000 542.41896596 0.80947088
47.60000000 542.41896596 0.80947088
47.70000000 542.41896596 0.80947088
47.80000000 542.41896596 0.80947088
47.90000000 542.41896596 0.80947088
48.00000000 542.41896596 0.80947088
48.10000000 542.41896596 0.80947088
48.20000000 542.46968052 0.80954656
48.30000000 542.46968052 0.80954656
48.40000000 542.47789372 0.80955882
48.50000000 542.47789372 0.80955882
48.60000000 542.47789372 0.80955882
48.70000000 542.47789372 0.80955882
48.80000000 542.47789372 0.80955882
48.90000000 542.47789372 0.80955882
49.00000000 542.47789372 0.80955882
49.10000000 542.47789372 0.80955882
49.20000000 542.55289764 0.80967075
49.30000000 542.55289764 0.80967075
49.40000000 542.55289764 0.80967075
49.50000000 542.55289764 0.80967075
49.60000000 542.55289764 0.80967075
49.70000000 542.55289764 0.80967075
49.80000000 542.55289764 0.80967075
49.90000000 542.55289764 0.80967075
50.00000000 542.55289764 0.80967075
50.10000000 542.55289764 0.80967075
50.20000000 542.55289764 0.80967075
50.30000000 542.55289764 0.80967075
50.40000000 542.55289764 0.80967075
50.50000000 542.55289764 0.80967075
50.60000000 542.55289764 0.80967075
50.70000000 542.55289764 0.80967075
50.80000000 542.55289764 0.80967075
50.90000000 542.55289764 0.80967075
51.00000000 542.55289764 0.80967075
51.10000000 542.55289764 0.80967075
51.20000000 542.55289764 0.80967075
51.30000000 542.55289764 0.80967075
51.40000000 542.55289764 0.80967075
51.50000000 542.55289764 0.80967075
51.60000000 542.55289764 0.80967075
51.70000000 542.55289764 0.80967075
51.80000000 542.55289764 0.80967075
51.90000000 542.55289764 0.80967075
52.00000000 542.55289764 0.80967075
52.10000000 542.55289764 0.80967075
52.20000000 542.55289764 0.80967075
52.30000000 542.55289764 0.80967075
52.40000000 542.55289764 0.80967075
52.50000000 542.55289764 0.80967075
52.60000000 542.55289764 0.80967075
52.70000000 542.55289764 0.80967075
52.80000000 542.55289764 0.80967075
52.90000000 542.55289764 0.80967075
53.00000000 542.55289764 0.80967075
53.10000000 542.55289764 0.80967075
53.20000000 542.55289764 0.80967075
53.30000000 542.55289764 0.80967075
53.40000000 542.55289764 0.80967075
53.50000000 542.55289764 0.80967075
53.60000000 542.55289764 0.80967075
53.70000000 542.55289764 0.80967075
53.80000000 542.55289764 0.80967075
53.90000000 542.55289764 0.80967075
54.00000000 542.55289764 0.80967075
54.10000000 542.55289764 0.80967075
54.20000000 542.55289764 0.80967075
54.30000000 542.55289764 0.80967075
54.40000000 542.55289764 0.80967075
54.50000000 542.55289764 0.80967075
54.60000000 542.55289764 0.80967075
54.70000000 542.55289764 0.80967075
54.80000000 542.55289764 0.80967075
54.90000000 542.55289764 0.80967075
55.00000000 542.55289764 0.80967075
55.10000000 542.55289764 0.80967075
55.20000000 542.55289764 0.80967075
55.30000000 542.55289764 0.80967075
55.40000000 542.55289764 0.80967075
55.50000000 542.55289764 0.80967075
55.60000000 542.55584196 0.80967514
55.70000000 542.55584196 0.80967514
55.80000000 542.55584196 0.80967514
55.90000000 542.55584196 0.80967514
56.00000000 542.55584196 0.80967514
56.10000000 542.55584196 0.80967514
56.20000000 542.55584196 0.80967514
56.30000000 542.55584196 0.80967514
56.40000000 542.55584196 0.80967514
56.50000000 542.55584196 0.80967514
56.60000000 542.55584196 0.80967514
56.70000000 542.55584196 0.80967514
56.80000000 542.55584196 0.80967514
56.90000000 542.55584196 0.80967514
57.00000000 542.55584196 0.80967514
57.10000000 542.55584196 0.80967514
57.20000000 542.83602212 0.81009327
57.30000000 542.83602212 0.81009327
57.40000000 542.83602212 0.81009327
57.50000000 542.83602212 0.81009327
57.60000000 542.83602212 0.81009327
57.70000000 542.83602212 0.81009327
57.80000000 542.83602212 0.81009327
57.90000000 542.83602212 0.81009327
58.00000000 542.84584748 0.81010793
58.10000000 542.84584748 0.81010793
58.20000000 542.84584748 0.81010793
58.30000000 542.84584748 0.81010793
58.40000000 542.84584748 0.81010793
58.50000000 542.84584748 0.81010793
58.60000000 542.84584748 0.81010793
58.70000000 542.84584748 0.81010793
58.80000000 542.84584748 0.81010793
58.90000000 542.84584748 0.81010793
59.00000000 542.84584748 0.81010793
59.10000000 542.84584748 0.81010793
59.20000000 542.84584748 0.81010793
59.30000000 542.84584748 0.81010793
59.40000000 542.84584748 0.81010793
59.50000000 542.84584748 0.81010793
59.60000000 542.84584748 0.81010793
59.70000000 542.84584748 0.81010793
59.80000000 542.84584748 0.81010793
59.90000000 542.84584748 0.81010793
60.00000000 542.84584748 0.81010793
60.10000000 542.84584748 0.81010793
60.20000000 542.84584748 0.81010793
60.30000000 542.84584748 0.81010793
60.40000000 542.84584748 0.81010793
60.50000000 542.84584748 0.81010793
60.60000000 542.84584748 0.81010793
60.70000000 542.84584748 0.81010793
60.80000000 542.84584748 0.81010793
60.90000000 542.84584748 0.81010793
61.00000000 542.84584748 0.81010793
61.10000000 542.84584748 0.81010793
61.20000000 542.84584748 0.81010793
61.30000000 542.84584748 0.81010793
61.40000000 542.85531164 0.81012205
61.50000000 542.85531164 0.81012205
61.60000000 542.85531164 0.81012205
61.70000000 542.85531164 0.81012205
61.80000000 542.85531164 0.81012205
61.90000000 542.85531164 0.81012205
62.00000000 542.94684724 0.81025866
62.10000000 542.94684724 0.81025866
62.20000000 542.94684724 0.81025866
62.30000000 542.94684724 0.81025866
62.40000000 542.94684724 0.81025866
62.50000000 542.94684724 0.81025866
62.60000000 542.94684724 0.81025866
62.70000000 542.94684724 0.81025866
62.80000000 542.94684724 0.81025866
62.90000000 542.94684724 0.81025866
63.00000000 542.94684724 0.81025866
63.10000000 542.94684724 0.81025866
63.20000000 542.94684724 0.81025866
63.30000000 542.94684724 0.81025866
63.40000000 542.94684724 0.81025866
63.50000000 542.94684724 0.81025866
63.60000000 542.94684724 0.81025866
63.70000000 542.94684724 0.81025866
63.80000000 542.94684724 0.81025866
63.90000000 542.94684724 0.81025866
64.00000000 542.94684724 0.81025866
64.10000000 542.94684724 0.81025866
64.20000000 542.94684724 0.81025866
64.30000000 542.94684724 0.81025866
64.40000000 542.94937620 0.81026243
64.50000000 542.94937620 0.81026243
64.60000000 542.94937620 0.81026243
64.70000000 542.94937620 0.81026243
64.80000000 542.94937620 0.81026243
64.90000000 542.94937620 0.81026243
65.00000000 542.94937620 0.81026243
65.10000000 542.94937620 0.81026243
65.20000000 550.94930900 0.82220101
65.30000000 550.94930900 0.82220101
65.40000000 550.94930900 0.82220101
65.50000000 550.94930900 0.82220101
65.60000000 550.94930900 0.82220101
65.70000000 550.94930900 0.82220101
65.80000000 558.94923372 0.83413958
65.90000000 558.94923372 0.83413958
66.00000000 558.94923372 0.83413958
66.10000000 558.94923372 0.83413958
66.20000000 558.94923372 0.83413958
66.30000000 558.94923372 0.83413958
66.40000000 566.94914900 0.84607813
66.50000000 566.94914900 0.84607813
66.60000000 566.94914900 0.84607813
66.70000000 566.94914900 0.84607813
66.80000000 566.94914900 0.84607813
66.90000000 566.94914900 0.84607813
67.00000000 566.94914900 0.84607813
67.10000000 574.94905308 0.85801667
67.20000000 574.95051068 0.85801885
67.30000000 574.95051068 0.85801885
67.40000000 574.95051068 0.85801885
67.50000000 574.95051068 0.85801885
67.60000000 574.95051068 0.85801885
67.70000000 574.95051068 0.85801885
67.80000000 574.95051068 0.85801885
67.90000000 574.95051068 0.85801885
68.00000000 574.95051068 0.85801885
68.10000000 574.95051068 0.85801885
68.20000000 574.95051068 0.85801885
68.30000000 574.95051068 0.85801885
68.40000000 574.95051068 0.85801885
68.50000000 574.95051068 0.85801885
68.60000000 574.95051068 0.85801885
68.70000000 577.73593588 0.86217563
68.80000000 577.73593588 0.86217563
68.90000000 577.73593588 0.86217563
69.00000000 577.79577028 0.86226493
69.10000000 577.79577028 0.86226493
69.20000000 585.79562532 0.87420339
69.30000000 585.79562532 0.87420339
69.40000000 585.79562532 0.87420339
69.50000000 585.79562532 0.87420339
69.60000000 585.79562532 0.87420339
69.70000000 585.79562532 0.87420339
69.80000000 585.79562532 0.87420339
69.90000000 609.79511772 0.91001868
70.00000000 609.79511772 0.91001868
70.10000000 609.79511772 0.91001868
70.20000000 609.79511772 0.91001868
70.30000000 609.79511772 0.91001868
70.40000000 609.79511772 0.91001868
70.50000000 609.79511772 0.91001868
70.60000000 609.79511772 0.91001868
70.70000000 609.79511772 0.91001868
70.80000000 609.79511772 0.91001868
70.90000000 609.79511772 0.91001868
71.00000000 609.79511772 0.91001868
71.10000000 609.79511772 0.91001868
71.20000000 609.79511772 0.91001868
71.30000000 609.79511772 0.91001868
71.40000000 617.79487956 0.92195700
71.50000000 617.79487956 0.92195700
71.60000000 617.79487956 0.92195700
71.70000000 617.79487956 0.92195700
71.80000000 617.79487956 0.92195700
71.90000000 617.79487956 0.92195700
72.00000000 617.79487956 0.92195700
72.10000000 617.79487956 0.92195700
72.20000000 617.79487956 0.92195700
72.30000000 617.79487956 0.92195700
72.40000000 617.79487956 0.92195700
72.50000000 617.79487956 0.92195700
72.60000000 617.79487956 0.92195700
72.70000000 617.79487956 0.92195700
72.80000000 617.79487956 0.92195700
72.90000000 617.79487956 0.92195700
73.00000000 617.79487956 0.92195700
73.10000000 621.79470212 0.92792608
73.20000000 621.79470212 0.92792608
73.30000000 621.79470212 0.92792608
73.40000000 621.79470212 0.92792608
73.50000000 621.79470212 0.92792608
73.60000000 621.79470212 0.92792608
73.70000000 621.79470212 0.92792608
73.80000000 621.79470212 0.92792608
73.90000000 637.79381028 0.95180211
74.00000000 637.79381028 0.95180211
74.10000000 637.79381028 0.95180211
74.20000000 637.80165796 0.95181382
74.30000000 637.80828740 0.95182371
74.40000000 637.80828740 0.95182371
74.50000000 637.80828740 0.95182371
74.60000000 637.80828740 0.95182371
74.70000000 637.80828740 0.95182371
74.80000000 637.80828740 0.95182371
74.90000000 645.80771276 0.96376154
75.00000000 645.80771276 0.96376154
75.10000000 645.80771276 0.96376154
75.20000000 645.80771276 0.96376154
75.30000000 645.80771276 0.96376154
75.40000000 645.80771276 0.96376154
75.50000000 645.80771276 0.96376154
75.60000000 645.80771276 0.96376154
75.70000000 645.80771276 0.96376154
75.80000000 645.80771276 0.96376154
75.90000000 645.80771276 0.96376154
76.00000000 645.80771276 0.96376154
76.10000000 645.80771276 0.96376154
76.20000000 645.80771276 0.96376154
76.30000000 645.80771276 0.96376154
76.40000000 645.80771276 0.96376154
76.50000000 645.80771276 0.96376154
76.60000000 645.81189108 0.96376777
76.70000000 645.81189108 0.96376777
76.80000000 645.81189108 0.96376777
76.90000000 653.81083052 0.97570487
77.00000000 653.81083052 0.97570487
77.10000000 653.81083052 0.97570487
77.20000000 653.81083052 0.97570487
77.30000000 653.81083052 0.97570487
77.40000000 653.81083052 0.97570487
77.50000000 653.81083052 0.97570487
77.60000000 653.81083052 0.97570487
77.70000000 653.81083052 0.97570487
77.80000000 653.81083052 0.97570487
77.90000000 653.81083052 0.97570487
78.00000000 661.80927220 0.98764123
78.10000000 661.80927220 0.98764123
78.20000000 661.80927220 0.98764123
78.30000000 661.80927220 0.98764123
78.40000000 661.80927220 0.98764123
78.50000000 661.80927220 0.98764123
78.60000000 661.80927220 0.98764123
78.70000000 661.80927220 0.98764123
78.80000000 661.80927220 0.98764123
78.90000000 661.81880780 0.98765546
79.00000000 661.81880780 0.98765546
79.10000000 661.81880780 0.98765546
79.20000000 661.81880780 0.98765546
79.30000000 661.81880780 0.98765546
79.40000000 661.81880780 0.98765546
79.50000000 661.81880780 0.98765546
79.60000000 661.81880780 0.98765546
79.70000000 661.81880780 0.98765546
79.80000000 661.81880780 0.98765546
79.90000000 661.81880780 0.98765546
80.00000000 661.81880780 0.98765546
80.10000000 661.81880780 0.98765546
80.20000000 661.81880780 0.98765546
80.30000000 661.81880780 0.98765546
80.40000000 661.81880780 0.98765546
80.50000000 661.81880780 0.98765546
80.60000000 661.81880780 0.98765546
80.70000000 661.82254636 0.98766104
80.80000000 661.82254636 0.98766104
80.90000000 661.82254636 0.98766104
81.00000000 661.82254636 0.98766104
81.10000000 661.82254636 0.98766104
81.20000000 661.82254636 0.98766104
81.30000000 661.82254636 0.98766104
81.40000000 661.82254636 0.98766104
81.50000000 661.82254636 0.98766104
81.60000000 661.82254636 0.98766104
81.70000000 661.82254636 0.98766104
81.80000000 661.82254636 0.98766104
81.90000000 661.82254636 0.98766104
82.00000000 661.82254636 0.98766104
82.10000000 661.82254636 0.98766104
82.20000000 661.82254636 0.98766104
82.30000000 661.82254636 0.98766104
82.40000000 661.82254636 0.98766104
82.50000000 661.82254636 0.98766104
82.60000000 661.82254636 0.98766104
82.70000000 661.82254636 0.98766104
82.80000000 661.82254636 0.98766104
82.90000000 662.01344988 0.98794593
83.00000000 662.01344988 0.98794593
83.10000000 662.01344988 0.98794593
83.20000000 662.01344988 0.98794593
83.30000000 662.01344988 0.98794593
83.40000000 662.01344988 0.98794593
83.50000000 662.01344988 0.98794593
83.60000000 662.01344988 0.98794593
83.70000000 662.01344988 0.98794593
83.80000000 662.01344988 0.98794593
83.90000000 662.01344988 0.98794593
84.00000000 662.01344988 0.98794593
84.10000000 662.01344988 0.98794593
84.20000000 662.01344988 0.98794593
84.30000000 669.96796452 0.99981673
84.40000000 669.96796452 0.99981673
84.50000000 669.96796452 0.99981673
84.60000000 669.96796452 0.99981673
84.70000000 669.96796452 0.99981673
84.80000000 669.96796452 0.99981673
84.90000000 669.96796452 0.99981673
85.00000000 669.96796452 0.99981673
85.10000000 669.96796452 0.99981673
85.20000000 669.96796452 0.99981673
85.30000000 669.96796452 0.99981673
85.40000000 669.96796452 0.99981673
85.50000000 670.02029500 0.99989483
85.60000000 670.02029500 0.99989483
85.70000000 670.02029500 0.99989483
85.80000000 670.02029500 0.99989483
85.90000000 670.02029500 0.99989483
86.00000000 670.02029500 0.99989483
86.10000000 670.02029500 0.99989483
86.20000000 670.02029500 0.99989483
86.30000000 670.02029500 0.99989483
86.40000000 670.02029500 0.99989483
86.50000000 670.02029500 0.99989483
86.60000000 670.02029500 0.99989483
86.70000000 670.02029500 0.99989483
86.80000000 670.02029500 0.99989483
86.90000000 670.02029500 0.99989483
87.00000000 670.02029500 0.99989483
87.10000000 670.02029500 0.99989483
87.20000000 670.02029500 0.99989483
87.30000000 670.02029500 0.99989483
87.40000000 670.02029500 0.99989483
87.50000000 670.02029500 0.99989483
87.60000000 670.02029500 0.99989483
87.70000000 670.05144004 0.99994130
87.80000000 670.05144004 0.99994130
87.90000000 670.05144004 0.99994130
88.00000000 670.05144004 0.99994130
88.10000000 670.05144004 0.99994130
88.20000000 670.05144004 0.99994130
88.30000000 670.05144004 0.99994130
88.40000000 670.05144004 0.99994130
88.50000000 670.05144004 0.99994130
88.60000000 670.05144004 0.99994130
88.70000000 670.05144004 0.99994130
88.80000000 670.05144004 0.99994130
88.90000000 670.05144004 0.99994130
89.00000000 670.05144004 0.99994130
89.10000000 670.05144004 0.99994130
89.20000000 670.05144004 0.99994130
89.30000000 670.05144004 0.99994130
89.40000000 670.05144004 0.99994130
89.50000000 670.05144004 0.99994130
89.60000000 670.09077140 1.00000000
89.70000000 670.09077140 1.00000000
89.80000000 670.09077140 1.00000000
89.90000000 670.09077140 1.00000000
90.00000000 670.09077140 1.00000000
