# Theta (deg), Enclosed Intensity, Normalized Enclosed Intensity
0.00000000 0.00000000 0.00000000
0.10000000 14.85411224 0.02443271
0.20000000 26.23799960 0.04315743
0.30000000 50.85824300 0.08365391
0.40000000 50.85824300 0.08365391
0.50000000 58.67999332 0.09651948
0.60000000 70.37988544 0.11576398
0.70000000 70.37988544 0.11576398
0.80000000 109.21411920 0.17964027
0.90000000 117.02289384 0.19248449
1.00000000 117.02289384 0.19248449
1.10000000 132.58507032 0.21808185
1.20000000 140.26289536 0.23071068
1.30000000 140.26289536 0.23071068
1.40000000 140.26289536 0.23071068
1.50000000 140.26289536 0.23071068
1.60000000 159.68482656 0.26265674
1.70000000 182.44355144 0.30009131
1.80000000 182.44355144 0.30009131
1.90000000 182.44355144 0.30009131
2.00000000 190.15773608 0.31277994
2.10000000 190.15773608 0.31277994
2.20000000 190.15773608 0.31277994
2.30000000 241.20350032 0.39674230
2.40000000 255.92752424 0.42096103
2.50000000 255.92752424 0.42096103
2.60000000 255.92752424 0.42096103
2.70000000 267.74360088 0.44039664
2.80000000 267.74360088 0.44039664
2.90000000 267.74360088 0.44039664
3.00000000 271.63799520 0.44680232
3.10000000 286.53370200 0.47130344
3.20000000 286.53370200 0.47130344
3.30000000 305.27831608 0.50213542
3.40000000 305.27831608 0.50213542
3.50000000 305.27831608 0.50213542
3.60000000 320.15092120 0.52659855
3.70000000 320.15092120 0.52659855
3.80000000 320.15092120 0.52659855
3.90000000 320.15092120 0.52659855
4.00000000 342.99046112 0.56416604
4.10000000 342.99046112 0.56416604
4.20000000 342.99046112 0.56416604
4.30000000 342.99046112 0.56416604
4.40000000 342.99046112 0.56416604
4.50000000 342.99046112 0.56416604
4.60000000 342.99046112 0.56416604
4.70000000 342.99046112 0.56416604
4.80000000 342.99046112 0.56416604
4.90000000 349.02542608 0.57409262
5.00000000 349.02542608 0.57409262
5.10000000 349.02542608 0.57409262
5.20000000 349.02542608 0.57409262
5.30000000 349.02542608 0.57409262
5.40000000 349.02542608 0.57409262
5.50000000 349.02542608 0.57409262
5.60000000 349.02542608 0.57409262
5.70000000 349.02542608 0.57409262
5.80000000 349.02542608 0.57409262
5.90000000 369.97735840 0.60855530
6.00000000 369.97735840 0.60855530
6.10000000 369.97735840 0.60855530
6.20000000 369.97735840 0.60855530
6.30000000 371.47081728 0.61101180
6.40000000 371.47081728 0.61101180
6.50000000 371.47081728 0.61101180
6.60000000 371.47081728 0.61101180
6.70000000 371.47081728 0.61101180
6.80000000 381.56142228 0.62760928
6.90000000 387.00314876 0.63656008
7.00000000 387.00314876 0.63656008
7.10000000 387.00314876 0.63656008
7.20000000 387.00314876 0.63656008
7.30000000 387.00314876 0.63656008
7.40000000 387.00314876 0.63656008
7.50000000 387.00314876 0.63656008
7.60000000 387.00314876 0.63656008
7.70000000 387.00314876 0.63656008
7.80000000 393.37176212 0.64703546
7.90000000 393.37176212 0.64703546
8.00000000 393.37176212 0.64703546
8.10000000 396.88815096 0.65281937
8.20000000 403.85062680 0.66427156
8.30000000 411.26401200 0.67646543
8.40000000 411.26401200 0.67646543
8.50000000 411.26401200 0.67646543
8.60000000 411.26401200 0.67646543
8.70000000 411.26401200 0.67646543
8.80000000 418.31987888 0.68807124
8.90000000 418.31987888 0.68807124
9.00000000 418.31987888 0.68807124
9.10000000 418.31987888 0.68807124
9.20000000 418.31987888 0.68807124
9.30000000 418.31987888 0.68807124
9.40000000 424.75145928 0.69865019
9.50000000 424.75145928 0.69865019
9.60000000 433.65338424 0.71329247
9.70000000 433.65338424 0.71329247
9.80000000 433.65338424 0.71329247
9.90000000 433.65338424 0.71329247
10.00000000 433.65338424 0.71329247
10.10000000 433.65338424 0.71329247
10.20000000 433.65338424 0.71329247
10.30000000 433.65338424 0.71329247
10.40000000 433.65338424 0.71329247
10.50000000 437.96488808 0.72038422
10.60000000 437.96488808 0.72038422
10.70000000 437.96488808 0.72038422
10.80000000 437.96488808 0.72038422
10.90000000 437.96488808 0.72038422
11.00000000 437.96488808 0.72038422
11.10000000 437.96488808 0.72038422
11.20000000 437.96488808 0.72038422
11.30000000 437.96488808 0.72038422
11.40000000 437.96488808 0.72038422
11.50000000 437.96488808 0.72038422
11.60000000 437.96488808 0.72038422
11.70000000 437.96488808 0.72038422
11.80000000 437.96488808 0.72038422
11.90000000 437.96488808 0.72038422
12.00000000 437.96488808 0.72038422
12.10000000 442.76283920 0.72827611
12.20000000 442.76283920 0.72827611
12.30000000 442.76283920 0.72827611
12.40000000 442.76283920 0.72827611
12.50000000 442.76283920 0.72827611
12.60000000 442.76283920 0.72827611
12.70000000 442.76283920 0.72827611
12.80000000 442.76283920 0.72827611
12.90000000 442.76283920 0.72827611
13.00000000 442.76283920 0.72827611
13.10000000 442.76283920 0.72827611
13.20000000 442.76283920 0.72827611
13.30000000 442.76283920 0.72827611
13.40000000 442.76283920 0.72827611
13.50000000 442.76283920 0.72827611
13.60000000 442.76283920 0.72827611
13.70000000 445.35449768 0.73253899
13.80000000 445.35449768 0.73253899
13.90000000 445.35449768 0.73253899
14.00000000 445.35449768 0.73253899
14.10000000 445.35449768 0.73253899
14.20000000 445.35449768 0.73253899
14.30000000 445.35449768 0.73253899
14.40000000 445.35449768 0.73253899
14.50000000 445.35449768 0.73253899
14.60000000 445.35449768 0.73253899
14.70000000 445.35449768 0.73253899
14.80000000 445.35449768 0.73253899
14.90000000 445.35449768 0.73253899
15.00000000 445.35449768 0.73253899
15.10000000 445.35449768 0.73253899
15.20000000 445.35449768 0.73253899
15.30000000 445.35449768 0.73253899
15.40000000 450.91638024 0.74168742
15.50000000 450.91638024 0.74168742
15.60000000 456.73522048 0.75125851
15.70000000 456.73522048 0.75125851
15.80000000 456.73522048 0.75125851
15.90000000 456.73522048 0.75125851
16.00000000 456.73522048 0.75125851
16.10000000 456.73522048 0.75125851
16.20000000 456.73522048 0.75125851
16.30000000 456.73522048 0.75125851
16.40000000 462.79385480 0.76122402
16.50000000 462.79385480 0.76122402
16.60000000 462.79385480 0.76122402
16.70000000 462.79385480 0.76122402
16.80000000 462.79385480 0.76122402
16.90000000 463.53978680 0.76245096
17.00000000 463.53978680 0.76245096
17.10000000 463.53978680 0.76245096
17.20000000 463.53978680 0.76245096
17.30000000 463.53978680 0.76245096
17.40000000 463.53978680 0.76245096
17.50000000 463.53978680 0.76245096
17.60000000 463.53978680 0.76245096
17.70000000 463.53978680 0.76245096
17.80000000 463.53978680 0.76245096
17.90000000 463.53978680 0.76245096
18.00000000 463.53978680 0.76245096
18.10000000 463.53978680 0.76245096
18.20000000 463.53978680 0.76245096
18.30000000 463.53978680 0.76245096
18.40000000 463.53978680 0.76245096
18.50000000 463.53978680 0.76245096
18.60000000 463.53978680 0.76245096
18.70000000 463.53978680 0.76245096
18.80000000 463.53978680 0.76245096
18.90000000 463.53978680 0.76245096
19.00000000 463.53978680 0.76245096
19.10000000 463.53978680 0.76245096
19.20000000 463.53978680 0.76245096
19.30000000 463.53978680 0.76245096
19.40000000 463.53978680 0.76245096
19.50000000 463.53978680 0.76245096
19.60000000 463.53978680 0.76245096
19.70000000 463.53978680 0.76245096
19.80000000 463.53978680 0.76245096
19.90000000 463.53978680 0.76245096
20.00000000 463.53978680 0.76245096
20.10000000 463.53978680 0.76245096
20.20000000 463.73282936 0.76276849
20.30000000 463.73282936 0.76276849
20.40000000 463.73282936 0.76276849
20.50000000 463.73282936 0.76276849
20.60000000 463.73282936 0.76276849
20.70000000 463.73282936 0.76276849
20.80000000 463.73282936 0.76276849
20.90000000 463.73282936 0.76276849
21.00000000 463.73282936 0.76276849
21.10000000 463.73282936 0.76276849
21.20000000 463.73282936 0.76276849
21.30000000 463.73282936 0.76276849
21.40000000 463.73282936 0.76276849
21.50000000 463.73282936 0.76276849
21.60000000 463.73282936 0.76276849
21.70000000 463.73282936 0.76276849
21.80000000 463.73282936 0.76276849
21.90000000 463.73282936 0.76276849
22.00000000 463.73282936 0.76276849
22.10000000 463.73282936 0.76276849
22.20000000 463.73282936 0.76276849
22.30000000 463.73282936 0.76276849
22.40000000 463.73282936 0.76276849
22.50000000 463.73282936 0.76276849
22.60000000 463.73282936 0.76276849
22.70000000 464.09979032 0.76337208
22.80000000 464.09979032 0.76337208
22.90000000 464.09979032 0.76337208
23.00000000 464.09979032 0.76337208
23.10000000 464.09979032 0.76337208
23.20000000 464.09979032 0.76337208
23.30000000 464.18577808 0.76351352
23.40000000 464.41685648 0.76389360
23.50000000 464.41685648 0.76389360
23.60000000 464.41685648 0.76389360
23.70000000 464.41685648 0.76389360
23.80000000 464.41685648 0.76389360
23.90000000 464.41685648 0.76389360
24.00000000 464.41685648 0.76389360
24.10000000 464.41685648 0.76389360
24.20000000 464.41685648 0.76389360
24.30000000 464.41685648 0.76389360
24.40000000 464.41685648 0.76389360
24.50000000 464.41685648 0.76389360
24.60000000 464.41685648 0.76389360
24.70000000 464.41685648 0.76389360
24.80000000 464.41942428 0.76389783
24.90000000 464.41942428 0.76389783
25.00000000 464.41942428 0.76389783
25.10000000 464.41942428 0.76389783
25.20000000 464.43553020 0.76392432
25.30000000 464.43553020 0.76392432
25.40000000 464.43553020 0.76392432
25.50000000 464.43553020 0.76392432
25.60000000 464.43553020 0.76392432
25.70000000 464.43553020 0.76392432
25.80000000 464.43553020 0.76392432
25.90000000 464.43553020 0.76392432
26.00000000 464.43553020 0.76392432
26.10000000 464.43553020 0.76392432
26.20000000 464.43553020 0.76392432
26.30000000 464.43553020 0.76392432
26.40000000 464.43553020 0.76392432
26.50000000 464.43553020 0.76392432
26.60000000 464.43553020 0.76392432
26.70000000 464.43553020 0.76392432
26.80000000 464.43553020 0.76392432
26.90000000 464.43553020 0.76392432
27.00000000 464.43553020 0.76392432
27.10000000 464.43553020 0.76392432
27.20000000 464.43553020 0.76392432
27.30000000 464.43553020 0.76392432
27.40000000 464.43553020 0.76392432
27.50000000 464.43553020 0.76392432
27.60000000 464.43553020 0.76392432
27.70000000 464.43553020 0.76392432
27.80000000 464.43553020 0.76392432
27.90000000 464.43553020 0.76392432
28.00000000 464.43553020 0.76392432
28.10000000 464.43553020 0.76392432
28.20000000 464.43553020 0.76392432
28.30000000 464.43553020 0.76392432
28.40000000 464.43553020 0.76392432
28.50000000 464.43553020 0.76392432
28.60000000 464.43553020 0.76392432
28.70000000 464.43553020 0.76392432
28.80000000 464.43553020 0.76392432
28.90000000 464.43553020 0.76392432
29.00000000 464.43553020 0.76392432
29.10000000 464.43553020 0.76392432
29.20000000 464.43553020 0.76392432
29.30000000 464.70013708 0.76435956
29.40000000 464.70013708 0.76435956
29.50000000 464.70013708 0.76435956
29.60000000 464.70013708 0.76435956
29.70000000 464.70013708 0.76435956
29.80000000 472.01353084 0.77638895
29.90000000 472.01353084 0.77638895
30.00000000 472.01353084 0.77638895
30.10000000 472.01353084 0.77638895
30.20000000 472.01353084 0.77638895
30.30000000 472.01353084 0.77638895
30.40000000 472.01353084 0.77638895
30.50000000 472.01353084 0.77638895
30.60000000 472.01353084 0.77638895
30.70000000 472.01353084 0.77638895
30.80000000 472.01353084 0.77638895
30.90000000 472.01353084 0.77638895
31.00000000 472.01353084 0.77638895
31.10000000 476.38415428 0.78357795
31.20000000 476.38415428 0.78357795
31.30000000 476.38415428 0.78357795
31.40000000 476.38415428 0.78357795
31.50000000 476.38415428 0.78357795
31.60000000 476.39905300 0.78360246
31.70000000 476.39905300 0.78360246
31.80000000 476.39905300 0.78360246
31.90000000 476.39905300 0.78360246
32.00000000 476.39905300 0.78360246
32.10000000 476.39905300 0.78360246
32.20000000 476.39905300 0.78360246
32.30000000 476.39905300 0.78360246
32.40000000 476.39905300 0.78360246
32.50000000 476.39905300 0.78360246
32.60000000 476.39905300 0.78360246
32.70000000 477.27502732 0.78504330
32.80000000 477.27502732 0.78504330
32.90000000 477.27502732 0.78504330
33.00000000 477.27502732 0.78504330
33.10000000 477.27502732 0.78504330
33.20000000 477.27502732 0.78504330
33.30000000 477.27502732 0.78504330
33.40000000 477.27502732 0.78504330
33.50000000 477.27502732 0.78504330
33.60000000 477.27502732 0.78504330
33.70000000 477.27502732 0.78504330
33.80000000 477.27502732 0.78504330
33.90000000 477.27502732 0.78504330
34.00000000 477.27502732 0.78504330
34.10000000 477.27502732 0.78504330
34.20000000 477.27502732 0.78504330
34.30000000 477.27502732 0.78504330
34.40000000 477.31258444 0.78510507
34.50000000 477.31258444 0.78510507
34.60000000 477.31258444 0.78510507
34.70000000 477.31258444 0.78510507
34.80000000 477.31258444 0.78510507
34.90000000 477.31258444 0.78510507
35.00000000 477.31258444 0.78510507
35.10000000 477.31258444 0.78510507
35.20000000 477.31258444 0.78510507
35.30000000 477.31258444 0.78510507
35.40000000 477.31258444 0.78510507
35.50000000 477.31258444 0.78510507
35.60000000 477.31258444 0.78510507
35.70000000 477.31258444 0.78510507
35.80000000 477.31258444 0.78510507
35.90000000 477.31258444 0.78510507
36.00000000 477.31258444 0.78510507
36.10000000 477.31258444 0.78510507
36.20000000 477.31258444 0.78510507
36.30000000 477.31258444 0.78510507
36.40000000 477.31258444 0.78510507
36.50000000 477.31258444 0.78510507
36.60000000 477.31828620 0.78511445
36.70000000 477.32160716 0.78511992
36.80000000 477.32160716 0.78511992
36.90000000 477.32160716 0.78511992
37.00000000 477.32160716 0.78511992
37.10000000 477.32160716 0.78511992
37.20000000 477.32160716 0.78511992
37.30000000 477.32160716 0.78511992
37.40000000 477.32160716 0.78511992
37.50000000 477.32160716 0.78511992
37.60000000 477.32160716 0.78511992
37.70000000 477.32160716 0.78511992
37.80000000 477.32160716 0.78511992
37.90000000 477.32160716 0.78511992
38.00000000 477.32160716 0.78511992
38.10000000 477.32160716 0.78511992
38.20000000 477.32160716 0.78511992
38.30000000 477.32160716 0.78511992
38.40000000 477.32160716 0.78511992
38.50000000 477.32160716 0.78511992
38.60000000 477.32160716 0.78511992
38.70000000 477.33920740 0.78514887
38.80000000 477.33920740 0.78514887
38.90000000 477.33920740 0.78514887
39.00000000 477.33920740 0.78514887
39.10000000 477.33920740 0.78514887
39.20000000 477.33920740 0.78514887
39.30000000 477.33920740 0.78514887
39.40000000 477.33920740 0.78514887
39.50000000 477.33920740 0.78514887
39.60000000 477.33920740 0.78514887
39.70000000 477.36423516 0.78519003
39.80000000 477.36423516 0.78519003
39.90000000 477.39874388 0.78524679
40.00000000 477.39874388 0.78524679
40.10000000 477.39874388 0.78524679
40.20000000 477.40915820 0.78526392
40.30000000 477.40915820 0.78526392
40.40000000 477.40915820 0.78526392
40.50000000 477.40915820 0.78526392
40.60000000 477.41714516 0.78527706
40.70000000 477.41714516 0.78527706
40.80000000 477.41714516 0.78527706
40.90000000 477.41714516 0.78527706
41.00000000 477.41714516 0.78527706
41.10000000 477.41714516 0.78527706
41.20000000 477.41945940 0.78528087
41.30000000 477.45328444 0.78533650
41.40000000 477.45328444 0.78533650
41.50000000 477.45328444 0.78533650
41.60000000 477.45328444 0.78533650
41.70000000 477.45328444 0.78533650
41.80000000 477.45328444 0.78533650
41.90000000 477.45328444 0.78533650
42.00000000 477.45328444 0.78533650
42.10000000 477.45328444 0.78533650
42.20000000 477.45328444 0.78533650
42.30000000 477.51272956 0.78543428
42.40000000 477.51272956 0.78543428
42.50000000 477.51272956 0.78543428
42.60000000 477.51272956 0.78543428
42.70000000 477.51272956 0.78543428
42.80000000 477.51272956 0.78543428
42.90000000 477.69825884 0.78573945
43.00000000 477.69825884 0.78573945
43.10000000 477.69825884 0.78573945
43.20000000 477.69825884 0.78573945
43.30000000 477.69825884 0.78573945
43.40000000 477.69825884 0.78573945
43.50000000 477.69825884 0.78573945
43.60000000 477.69825884 0.78573945
43.70000000 477.69825884 0.78573945
43.80000000 477.69825884 0.78573945
43.90000000 478.24018612 0.78663084
44.00000000 478.24018612 0.78663084
44.10000000 478.25355012 0.78665282
44.20000000 478.25355012 0.78665282
44.30000000 478.25355012 0.78665282
44.40000000 478.25355012 0.78665282
44.50000000 478.25355012 0.78665282
44.60000000 478.25355012 0.78665282
44.70000000 478.25636116 0.78665744
44.80000000 478.25636116 0.78665744
44.90000000 478.25636116 0.78665744
45.00000000 478.25900436 0.78666179
45.10000000 478.25900436 0.78666179
45.20000000 478.25900436 0.78666179
45.30000000 478.25900436 0.78666179
45.40000000 478.25900436 0.78666179
45.50000000 478.25900436 0.78666179
45.60000000 478.36721004 0.78683977
45.70000000 478.36721004 0.78683977
45.80000000 478.36721004 0.78683977
45.90000000 478.36721004 0.78683977
46.00000000 478.36721004 0.78683977
46.10000000 478.40041356 0.78689438
46.20000000 478.40041356 0.78689438
46.30000000 478.40041356 0.78689438
46.40000000 478.40041356 0.78689438
46.50000000 478.40041356 0.78689438
46.60000000 478.40041356 0.78689438
46.70000000 478.40041356 0.78689438
46.80000000 478.42528668 0.78693530
46.90000000 478.42528668 0.78693530
47.00000000 478.44672204 0.78697055
47.10000000 478.48677068 0.78703643
47.20000000 478.48677068 0.78703643
47.30000000 478.49920556 0.78705688
47.40000000 478.49920556 0.78705688
47.50000000 478.49920556 0.78705688
47.60000000 478.49920556 0.78705688
47.70000000 478.49920556 0.78705688
47.80000000 478.49920556 0.78705688
47.90000000 478.77279132 0.78750689
48.00000000 478.77279132 0.78750689
48.10000000 478.77279132 0.78750689
48.20000000 478.77279132 0.78750689
48.30000000 478.80069252 0.78755278
48.40000000 478.80069252 0.78755278
48.50000000 478.81884700 0.78758264
48.60000000 478.94256988 0.78778615
48.70000000 478.94256988 0.78778615
48.80000000 478.94256988 0.78778615
48.90000000 478.94256988 0.78778615
49.00000000 478.94256988 0.78778615
49.10000000 478.94993884 0.78779827
49.20000000 478.94993884 0.78779827
49.30000000 478.94993884 0.78779827
49.40000000 479.28608308 0.78835117
49.50000000 479.28608308 0.78835117
49.60000000 479.76491524 0.78913878
49.70000000 479.76491524 0.78913878
49.80000000 479.76491524 0.78913878
49.90000000 479.76491524 0.78913878
50.00000000 479.76491524 0.78913878
50.10000000 479.76491524 0.78913878
50.20000000 479.89686188 0.78935581
50.30000000 479.89686188 0.78935581
50.40000000 479.89686188 0.78935581
50.50000000 479.89686188 0.78935581
50.60000000 479.89842804 0.78935839
50.70000000 479.89842804 0.78935839
50.80000000 479.90140068 0.78936328
50.90000000 479.90140068 0.78936328
51.00000000 479.90140068 0.78936328
51.10000000 479.90140068 0.78936328
51.20000000 479.90140068 0.78936328
51.30000000 479.90140068 0.78936328
51.40000000 479.90260644 0.78936526
51.50000000 479.90260644 0.78936526
51.60000000 479.90260644 0.78936526
51.70000000 479.90511364 0.78936938
51.80000000 479.90704348 0.78937256
51.90000000 479.90704348 0.78937256
52.00000000 479.90704348 0.78937256
52.10000000 479.90910668 0.78937595
52.20000000 479.90910668 0.78937595
52.30000000 479.90910668 0.78937595
52.40000000 479.90910668 0.78937595
52.50000000 479.93461868 0.78941791
52.60000000 479.93461868 0.78941791
52.70000000 479.93461868 0.78941791
52.80000000 479.93461868 0.78941791
52.90000000 479.93461868 0.78941791
53.00000000 479.93461868 0.78941791
53.10000000 479.93461868 0.78941791
53.20000000 479.93461868 0.78941791
53.30000000 479.93461868 0.78941791
53.40000000 479.93461868 0.78941791
53.50000000 479.93461868 0.78941791
53.60000000 479.93461868 0.78941791
53.70000000 479.93461868 0.78941791
53.80000000 479.93461868 0.78941791
53.90000000 479.93551404 0.78941939
54.00000000 479.93551404 0.78941939
54.10000000 480.00046340 0.78952622
54.20000000 480.00046340 0.78952622
54.30000000 480.00046340 0.78952622
54.40000000 480.00046340 0.78952622
54.50000000 480.00046340 0.78952622
54.60000000 480.00046340 0.78952622
54.70000000 480.00046340 0.78952622
54.80000000 480.00046340 0.78952622
54.90000000 480.00046340 0.78952622
55.00000000 480.00046340 0.78952622
55.10000000 480.00046340 0.78952622
55.20000000 480.00046340 0.78952622
55.30000000 480.00046340 0.78952622
55.40000000 480.00046340 0.78952622
55.50000000 480.00046340 0.78952622
55.60000000 480.00046340 0.78952622
55.70000000 480.00046340 0.78952622
55.80000000 480.00046340 0.78952622
55.90000000 480.00046340 0.78952622
56.00000000 480.00046340 0.78952622
56.10000000 480.00046340 0.78952622
56.20000000 480.00046340 0.78952622
56.30000000 480.00046340 0.78952622
56.40000000 480.00046340 0.78952622
56.50000000 480.00046340 0.78952622
56.60000000 480.00046340 0.78952622
56.70000000 480.00046340 0.78952622
56.80000000 480.00046340 0.78952622
56.90000000 480.00046340 0.78952622
57.00000000 480.00046340 0.78952622
57.10000000 480.00046340 0.78952622
57.20000000 480.00046340 0.78952622
57.30000000 480.00046340 0.78952622
57.40000000 480.00046340 0.78952622
57.50000000 480.00139972 0.78952776
57.60000000 480.00139972 0.78952776
57.70000000 480.00139972 0.78952776
57.80000000 480.00139972 0.78952776
57.90000000 480.00139972 0.78952776
58.00000000 480.00139972 0.78952776
58.10000000 480.00139972 0.78952776
58.20000000 480.00139972 0.78952776
58.30000000 480.00139972 0.78952776
58.40000000 480.00139972 0.78952776
58.50000000 480.00139972 0.78952776
58.60000000 480.00139972 0.78952776
58.70000000 480.00139972 0.78952776
58.80000000 480.00139972 0.78952776
58.90000000 480.00139972 0.78952776
59.00000000 480.00139972 0.78952776
59.10000000 480.00139972 0.78952776
59.20000000 480.00139972 0.78952776
59.30000000 480.00139972 0.78952776
59.40000000 480.00139972 0.78952776
59.50000000 480.00139972 0.78952776
59.60000000 480.00139972 0.78952776
59.70000000 480.00139972 0.78952776
59.80000000 480.00139972 0.78952776
59.90000000 480.00139972 0.78952776
60.00000000 480.00139972 0.78952776
60.10000000 480.00139972 0.78952776
60.20000000 480.00139972 0.78952776
60.30000000 480.00139972 0.78952776
60.40000000 480.00553020 0.78953455
60.50000000 480.00553020 0.78953455
60.60000000 480.00553020 0.78953455
60.70000000 480.00553020 0.78953455
60.80000000 480.00553020 0.78953455
60.90000000 480.00553020 0.78953455
61.00000000 480.00553020 0.78953455
61.10000000 480.05573444 0.78961713
61.20000000 480.05573444 0.78961713
61.30000000 480.05573444 0.78961713
61.40000000 480.05573444 0.78961713
61.50000000 480.05573444 0.78961713
61.60000000 480.05573444 0.78961713
61.70000000 480.05573444 0.78961713
61.80000000 480.05573444 0.78961713
61.90000000 480.05573444 0.78961713
62.00000000 480.05573444 0.78961713
62.10000000 480.05573444 0.78961713
62.20000000 480.05573444 0.78961713
62.30000000 480.05573444 0.78961713
62.40000000 480.05573444 0.78961713
62.50000000 480.05573444 0.78961713
62.60000000 480.05573444 0.78961713
62.70000000 480.05573444 0.78961713
62.80000000 480.06022292 0.78962451
62.90000000 480.06022292 0.78962451
63.00000000 480.06022292 0.78962451
63.10000000 480.06022292 0.78962451
63.20000000 480.06022292 0.78962451
63.30000000 480.06022292 0.78962451
63.40000000 480.06022292 0.78962451
63.50000000 480.06022292 0.78962451
63.60000000 480.06022292 0.78962451
63.70000000 480.06022292 0.78962451
63.80000000 480.06022292 0.78962451
63.90000000 480.06022292 0.78962451
64.00000000 480.09400220 0.78968007
64.10000000 480.09400220 0.78968007
64.20000000 480.09400220 0.78968007
64.30000000 480.09400220 0.78968007
64.40000000 480.09400220 0.78968007
64.50000000 480.09400220 0.78968007
64.60000000 480.09400220 0.78968007
64.70000000 480.09400220 0.78968007
64.80000000 480.09400220 0.78968007
64.90000000 480.09400220 0.78968007
65.00000000 488.09377756 0.80283846
65.10000000 488.09377756 0.80283846
65.20000000 488.09377756 0.80283846
65.30000000 488.09377756 0.80283846
65.40000000 488.09377756 0.80283846
65.50000000 488.09377756 0.80283846
65.60000000 488.09377756 0.80283846
65.70000000 496.09352612 0.81599681
65.80000000 496.09352612 0.81599681
65.90000000 496.09352612 0.81599681
66.00000000 496.09352612 0.81599681
66.10000000 496.09352612 0.81599681
66.20000000 496.09352612 0.81599681
66.30000000 504.09324316 0.82915510
66.40000000 504.09324316 0.82915510
66.50000000 504.09324316 0.82915510
66.60000000 504.09324316 0.82915510
66.70000000 504.09324316 0.82915510
66.80000000 504.09324316 0.82915510
66.90000000 504.09324316 0.82915510
67.00000000 512.09292292 0.84231333
67.10000000 512.09292292 0.84231333
67.20000000 512.09458668 0.84231607
67.30000000 512.09458668 0.84231607
67.40000000 512.09458668 0.84231607
67.50000000 512.09458668 0.84231607
67.60000000 512.09458668 0.84231607
67.70000000 512.09458668 0.84231607
67.80000000 512.09458668 0.84231607
67.90000000 512.09458668 0.84231607
68.00000000 512.09458668 0.84231607
68.10000000 512.09993132 0.84232486
68.20000000 512.09993132 0.84232486
68.30000000 512.09993132 0.84232486
68.40000000 512.09993132 0.84232486
68.50000000 512.09993132 0.84232486
68.60000000 512.09993132 0.84232486
68.70000000 512.10617116 0.84233512
68.80000000 512.10617116 0.84233512
68.90000000 512.10617116 0.84233512
69.00000000 520.10568772 0.85549308
69.10000000 520.10568772 0.85549308
69.20000000 520.10695868 0.85549517
69.30000000 520.10695868 0.85549517
69.40000000 520.10695868 0.85549517
69.50000000 520.10695868 0.85549517
69.60000000 520.10695868 0.85549517
69.70000000 544.10526716 0.89496866
69.80000000 547.04179508 0.89979880
69.90000000 547.04179508 0.89979880
70.00000000 547.04179508 0.89979880
70.10000000 547.04179508 0.89979880
70.20000000 547.04179508 0.89979880
70.30000000 547.04179508 0.89979880
70.40000000 547.04179508 0.89979880
70.50000000 547.04179508 0.89979880
70.60000000 547.04179508 0.89979880
70.70000000 547.04179508 0.89979880
70.80000000 547.04179508 0.89979880
70.90000000 547.04179508 0.89979880
71.00000000 547.04179508 0.89979880
71.10000000 547.04179508 0.89979880
71.20000000 555.04100252 0.91295625
71.30000000 555.04100252 0.91295625
71.40000000 555.05338260 0.91297661
71.50000000 555.05338260 0.91297661
71.60000000 555.05338260 0.91297661
71.70000000 555.05338260 0.91297661
71.80000000 555.06280140 0.91299211
71.90000000 555.06280140 0.91299211
72.00000000 555.06280140 0.91299211
72.10000000 555.06280140 0.91299211
72.20000000 555.06280140 0.91299211
72.30000000 555.06280140 0.91299211
72.40000000 555.06280140 0.91299211
72.50000000 555.06280140 0.91299211
72.60000000 555.06280140 0.91299211
72.70000000 555.06280140 0.91299211
72.80000000 555.06280140 0.91299211
72.90000000 559.06221200 0.91957052
73.00000000 559.06221200 0.91957052
73.10000000 559.06221200 0.91957052
73.20000000 559.06221200 0.91957052
73.30000000 559.06221200 0.91957052
73.40000000 559.06221200 0.91957052
73.50000000 559.07252880 0.91958749
73.60000000 559.08178920 0.91960272
73.70000000 575.07883096 0.94591537
73.80000000 575.07883096 0.94591537
73.90000000 575.07883096 0.94591537
74.00000000 575.07883096 0.94591537
74.10000000 575.07883096 0.94591537
74.20000000 575.07883096 0.94591537
74.30000000 575.07883096 0.94591537
74.40000000 575.07883096 0.94591537
74.50000000 575.07883096 0.94591537
74.60000000 583.07692824 0.95907099
74.70000000 583.07692824 0.95907099
74.80000000 583.07692824 0.95907099
74.90000000 583.07692824 0.95907099
75.00000000 583.07692824 0.95907099
75.10000000 583.07692824 0.95907099
75.20000000 583.07692824 0.95907099
75.30000000 583.07692824 0.95907099
75.40000000 583.07692824 0.95907099
75.50000000 583.07692824 0.95907099
75.60000000 583.07692824 0.95907099
75.70000000 583.07692824 0.95907099
75.80000000 583.07692824 0.95907099
75.90000000 583.07692824 0.95907099
76.00000000 583.07692824 0.95907099
76.10000000 583.07692824 0.95907099
76.20000000 583.07692824 0.95907099
76.30000000 583.07692824 0.95907099
76.40000000 583.07692824 0.95907099
76.50000000 583.07692824 0.95907099
76.60000000 591.07343400 0.97222401
76.70000000 591.08073528 0.97223601
76.80000000 591.08073528 0.97223601
76.90000000 591.08073528 0.97223601
77.00000000 591.08073528 0.97223601
77.10000000 591.08073528 0.97223601
77.20000000 591.08073528 0.97223601
77.30000000 591.08073528 0.97223601
77.40000000 591.08073528 0.97223601
77.50000000 591.09704592 0.97226284
77.60000000 591.09704592 0.97226284
77.70000000 599.09193240 0.98541319
77.80000000 599.09362416 0.98541597
77.90000000 599.09362416 0.98541597
78.00000000 599.09362416 0.98541597
78.10000000 599.09362416 0.98541597
78.20000000 599.09362416 0.98541597
78.30000000 599.09362416 0.98541597
78.40000000 599.09362416 0.98541597
78.50000000 599.09362416 0.98541597
78.60000000 599.09362416 0.98541597
78.70000000 599.09858064 0.98542413
78.80000000 599.09858064 0.98542413
78.90000000 599.12459192 0.98546691
79.00000000 599.12459192 0.98546691
79.10000000 599.12459192 0.98546691
79.20000000 599.12459192 0.98546691
79.30000000 599.12459192 0.98546691
79.40000000 599.12459192 0.98546691
79.50000000 599.12459192 0.98546691
79.60000000 599.12459192 0.98546691
79.70000000 599.12459192 0.98546691
79.80000000 599.12459192 0.98546691
79.90000000 599.12459192 0.98546691
80.00000000 599.12459192 0.98546691
80.10000000 599.12459192 0.98546691
80.20000000 599.12459192 0.98546691
80.30000000 599.12459192 0.98546691
80.40000000 599.14039304 0.98549290
80.50000000 599.14039304 0.98549290
80.60000000 599.14039304 0.98549290
80.70000000 599.14039304 0.98549290
80.80000000 599.14039304 0.98549290
80.90000000 599.14039304 0.98549290
81.00000000 599.14375584 0.98549843
81.10000000 599.14375584 0.98549843
81.20000000 599.14375584 0.98549843
81.30000000 599.14375584 0.98549843
81.40000000 599.14375584 0.98549843
81.50000000 599.14375584 0.98549843
81.60000000 599.14375584 0.98549843
81.70000000 599.14375584 0.98549843
81.80000000 599.14375584 0.98549843
81.90000000 599.14375584 0.98549843
82.00000000 599.14375584 0.98549843
82.10000000 599.14375584 0.98549843
82.20000000 599.14375584 0.98549843
82.30000000 599.14375584 0.98549843
82.40000000 599.14375584 0.98549843
82.50000000 599.14375584 0.98549843
82.60000000 599.14375584 0.98549843
82.70000000 599.14644384 0.98550285
82.80000000 599.14644384 0.98550285
82.90000000 599.14644384 0.98550285
83.00000000 599.16088944 0.98552661
83.10000000 599.66642656 0.98635814
83.20000000 599.66642656 0.98635814
83.30000000 599.66642656 0.98635814
83.40000000 599.66782312 0.98636044
83.50000000 599.66782312 0.98636044
83.60000000 599.66782312 0.98636044
83.70000000 607.53240536 0.99929646
83.80000000 607.53240536 0.99929646
83.90000000 607.53240536 0.99929646
84.00000000 607.53240536 0.99929646
84.10000000 607.53240536 0.99929646
84.20000000 607.53240536 0.99929646
84.30000000 607.53240536 0.99929646
84.40000000 607.53240536 0.99929646
84.50000000 607.53240536 0.99929646
84.60000000 607.53240536 0.99929646
84.70000000 607.53240536 0.99929646
84.80000000 607.53240536 0.99929646
84.90000000 607.53240536 0.99929646
85.00000000 607.53240536 0.99929646
85.10000000 607.53240536 0.99929646
85.20000000 607.53240536 0.99929646
85.30000000 607.53240536 0.99929646
85.40000000 607.53240536 0.99929646
85.50000000 607.53240536 0.99929646
85.60000000 607.68979512 0.99955534
85.70000000 607.68979512 0.99955534
85.80000000 607.69472648 0.99956345
85.90000000 607.69472648 0.99956345
86.00000000 607.69472648 0.99956345
86.10000000 607.69472648 0.99956345
86.20000000 607.69472648 0.99956345
86.30000000 607.69472648 0.99956345
86.40000000 607.69472648 0.99956345
86.50000000 607.69472648 0.99956345
86.60000000 607.70144416 0.99957450
86.70000000 607.70144416 0.99957450
86.80000000 607.70144416 0.99957450
86.90000000 607.70144416 0.99957450
87.00000000 607.70144416 0.99957450
87.10000000 607.70144416 0.99957450
87.20000000 607.70144416 0.99957450
87.30000000 607.70144416 0.99957450
87.40000000 607.70144416 0.99957450
87.50000000 607.70144416 0.99957450
87.60000000 607.70144416 0.99957450
87.70000000 607.70144416 0.99957450
87.80000000 607.80535688 0.99974542
87.90000000 607.80535688 0.99974542
88.00000000 607.80535688 0.99974542
88.10000000 607.80535688 0.99974542
88.20000000 607.80535688 0.99974542
88.30000000 607.80535688 0.99974542
88.40000000 607.80535688 0.99974542
88.50000000 607.80535688 0.99974542
88.60000000 607.80535688 0.99974542
88.70000000 607.80535688 0.99974542
88.80000000 607.80535688 0.99974542
88.90000000 607.80535688 0.99974542
89.00000000 607.80535688 0.99974542
89.10000000 607.80612296 0.99974668
89.20000000 607.81438568 0.99976027
89.30000000 607.81438568 0.99976027
89.40000000 607.81438568 0.99976027
89.50000000 607.81438568 0.99976027
89.60000000 607.81693888 0.99976447
89.70000000 607.96013152 1.00000000
89.80000000 607.96013152 1.00000000
89.90000000 607.96013152 1.00000000
90.00000000 607.96013152 1.00000000
