# Theta (deg), Enclosed Intensity, Normalized Enclosed Intensity
0.00000000 0.00000000 0.00000000
0.10000000 0.00000000 0.00000000
0.20000000 0.00000000 0.00000000
0.30000000 0.00000000 0.00000000
0.40000000 0.00000000 0.00000000
0.50000000 3.92915684 0.00573160
0.60000000 3.92915684 0.00573160
0.70000000 3.92915684 0.00573160
0.80000000 10.86299772 0.01584623
0.90000000 22.50971064 0.03283569
1.00000000 30.36074176 0.04428826
1.10000000 45.58724072 0.06649967
1.20000000 45.58724072 0.06649967
1.30000000 57.37158312 0.08368990
1.40000000 57.37158312 0.08368990
1.50000000 57.37158312 0.08368990
1.60000000 57.37158312 0.08368990
1.70000000 57.37158312 0.08368990
1.80000000 57.37158312 0.08368990
1.90000000 57.37158312 0.08368990
2.00000000 57.37158312 0.08368990
2.10000000 57.37158312 0.08368990
2.20000000 57.37158312 0.08368990
2.30000000 57.37158312 0.08368990
2.40000000 57.37158312 0.08368990
2.50000000 57.37158312 0.08368990
2.60000000 67.63569752 0.09866252
2.70000000 67.63569752 0.09866252
2.80000000 67.63569752 0.09866252
2.90000000 67.63569752 0.09866252
3.00000000 67.63569752 0.09866252
3.10000000 67.63569752 0.09866252
3.20000000 67.63569752 0.09866252
3.30000000 75.30044648 0.10984335
3.40000000 75.30044648 0.10984335
3.50000000 75.30044648 0.10984335
3.60000000 75.30044648 0.10984335
3.70000000 75.30044648 0.10984335
3.80000000 75.30044648 0.10984335
3.90000000 90.75008632 0.13238027
4.00000000 90.75008632 0.13238027
4.10000000 90.75008632 0.13238027
4.20000000 90.75008632 0.13238027
4.30000000 90.75008632 0.13238027
4.40000000 90.75008632 0.13238027
4.50000000 94.63152744 0.13804226
4.60000000 94.63152744 0.13804226
4.70000000 94.63152744 0.13804226
4.80000000 94.63152744 0.13804226
4.90000000 94.63152744 0.13804226
5.00000000 94.63152744 0.13804226
5.10000000 102.43779288 0.14942953
5.20000000 102.43779288 0.14942953
5.30000000 110.29438432 0.16089021
5.40000000 118.14918128 0.17234827
5.50000000 141.65940632 0.20664344
5.60000000 161.26668888 0.23524526
5.70000000 161.26668888 0.23524526
5.80000000 161.26668888 0.23524526
5.90000000 161.26668888 0.23524526
6.00000000 161.26668888 0.23524526
6.10000000 161.26668888 0.23524526
6.20000000 161.26668888 0.23524526
6.30000000 167.68184344 0.24460326
6.40000000 167.68184344 0.24460326
6.50000000 167.68184344 0.24460326
6.60000000 167.68184344 0.24460326
6.70000000 167.68184344 0.24460326
6.80000000 167.68184344 0.24460326
6.90000000 167.68184344 0.24460326
7.00000000 167.68184344 0.24460326
7.10000000 167.68184344 0.24460326
7.20000000 167.68184344 0.24460326
7.30000000 167.68184344 0.24460326
7.40000000 167.68184344 0.24460326
7.50000000 174.42972224 0.25444663
7.60000000 174.42972224 0.25444663
7.70000000 174.42972224 0.25444663
7.80000000 174.42972224 0.25444663
7.90000000 174.42972224 0.25444663
8.00000000 174.42972224 0.25444663
8.10000000 174.42972224 0.25444663
8.20000000 174.42972224 0.25444663
8.30000000 174.42972224 0.25444663
8.40000000 174.42972224 0.25444663
8.50000000 174.42972224 0.25444663
8.60000000 179.55092784 0.26191711
8.70000000 179.55092784 0.26191711
8.80000000 179.55092784 0.26191711
8.90000000 179.55092784 0.26191711
9.00000000 179.55092784 0.26191711
9.10000000 179.55092784 0.26191711
9.20000000 179.55092784 0.26191711
9.30000000 193.85701424 0.28278589
9.40000000 193.85701424 0.28278589
9.50000000 193.85701424 0.28278589
9.60000000 193.85701424 0.28278589
9.70000000 193.85701424 0.28278589
9.80000000 193.85701424 0.28278589
9.90000000 193.85701424 0.28278589
10.00000000 201.13882944 0.29340812
10.10000000 201.13882944 0.29340812
10.20000000 201.13882944 0.29340812
10.30000000 201.13882944 0.29340812
10.40000000 201.13882944 0.29340812
10.50000000 201.13882944 0.29340812
10.60000000 201.13882944 0.29340812
10.70000000 203.06326320 0.29621536
10.80000000 203.06326320 0.29621536
10.90000000 203.06326320 0.29621536
11.00000000 203.06326320 0.29621536
11.10000000 210.52273368 0.30709674
11.20000000 210.52273368 0.30709674
11.30000000 210.52273368 0.30709674
11.40000000 210.52273368 0.30709674
11.50000000 221.80605336 0.32355611
11.60000000 221.80605336 0.32355611
11.70000000 221.80605336 0.32355611
11.80000000 221.80605336 0.32355611
11.90000000 221.80605336 0.32355611
12.00000000 221.80605336 0.32355611
12.10000000 221.80605336 0.32355611
12.20000000 221.80605336 0.32355611
12.30000000 229.45636312 0.33471588
12.40000000 229.45636312 0.33471588
12.50000000 237.13611664 0.34591860
12.60000000 237.13611664 0.34591860
12.70000000 244.84083464 0.35715774
12.80000000 268.12038784 0.39111642
12.90000000 283.75537952 0.41392372
13.00000000 311.01146536 0.45368311
13.10000000 311.01146536 0.45368311
13.20000000 311.01146536 0.45368311
13.30000000 311.01146536 0.45368311
13.40000000 311.01146536 0.45368311
13.50000000 311.01146536 0.45368311
13.60000000 311.01146536 0.45368311
13.70000000 311.01146536 0.45368311
13.80000000 311.01146536 0.45368311
13.90000000 311.01146536 0.45368311
14.00000000 311.01146536 0.45368311
14.10000000 311.01146536 0.45368311
14.20000000 311.01146536 0.45368311
14.30000000 311.01146536 0.45368311
14.40000000 311.01146536 0.45368311
14.50000000 311.01146536 0.45368311
14.60000000 311.01146536 0.45368311
14.70000000 311.01146536 0.45368311
14.80000000 311.01146536 0.45368311
14.90000000 311.01146536 0.45368311
15.00000000 311.01146536 0.45368311
15.10000000 311.01146536 0.45368311
15.20000000 311.01146536 0.45368311
15.30000000 311.01146536 0.45368311
15.40000000 311.01146536 0.45368311
15.50000000 311.01146536 0.45368311
15.60000000 311.01146536 0.45368311
15.70000000 311.01146536 0.45368311
15.80000000 311.01146536 0.45368311
15.90000000 311.01146536 0.45368311
16.00000000 311.01146536 0.45368311
16.10000000 311.01146536 0.45368311
16.20000000 311.01146536 0.45368311
16.30000000 311.01146536 0.45368311
16.40000000 311.01146536 0.45368311
16.50000000 311.01146536 0.45368311
16.60000000 311.01146536 0.45368311
16.70000000 311.01146536 0.45368311
16.80000000 311.01146536 0.45368311
16.90000000 311.01146536 0.45368311
17.00000000 311.01146536 0.45368311
17.10000000 311.01146536 0.45368311
17.20000000 311.01146536 0.45368311
17.30000000 311.01146536 0.45368311
17.40000000 311.01146536 0.45368311
17.50000000 311.01146536 0.45368311
17.60000000 311.01146536 0.45368311
17.70000000 311.01146536 0.45368311
17.80000000 311.01146536 0.45368311
17.90000000 311.01146536 0.45368311
18.00000000 311.01146536 0.45368311
18.10000000 311.01146536 0.45368311
18.20000000 311.01146536 0.45368311
18.30000000 311.01146536 0.45368311
18.40000000 311.01146536 0.45368311
18.50000000 311.01146536 0.45368311
18.60000000 311.01146536 0.45368311
18.70000000 311.01146536 0.45368311
18.80000000 311.01146536 0.45368311
18.90000000 311.01146536 0.45368311
19.00000000 315.38367904 0.46006101
19.10000000 315.38367904 0.46006101
19.20000000 315.46470944 0.46017921
19.30000000 315.46470944 0.46017921
19.40000000 315.46470944 0.46017921
19.50000000 315.46470944 0.46017921
19.60000000 315.46470944 0.46017921
19.70000000 315.46470944 0.46017921
19.80000000 315.46470944 0.46017921
19.90000000 315.46470944 0.46017921
20.00000000 315.46470944 0.46017921
20.10000000 315.46470944 0.46017921
20.20000000 315.46470944 0.46017921
20.30000000 315.46470944 0.46017921
20.40000000 322.96800944 0.47112453
20.50000000 322.96800944 0.47112453
20.60000000 322.96800944 0.47112453
20.70000000 322.96800944 0.47112453
20.80000000 322.96800944 0.47112453
20.90000000 322.96800944 0.47112453
21.00000000 322.96800944 0.47112453
21.10000000 322.96800944 0.47112453
21.20000000 322.96800944 0.47112453
21.30000000 322.96800944 0.47112453
21.40000000 322.96800944 0.47112453
21.50000000 322.96800944 0.47112453
21.60000000 322.96800944 0.47112453
21.70000000 322.96800944 0.47112453
21.80000000 322.96800944 0.47112453
21.90000000 322.96800944 0.47112453
22.00000000 322.96800944 0.47112453
22.10000000 322.96800944 0.47112453
22.20000000 322.96800944 0.47112453
22.30000000 322.96800944 0.47112453
22.40000000 328.83946760 0.47968943
22.50000000 328.83946760 0.47968943
22.60000000 328.83946760 0.47968943
22.70000000 328.83946760 0.47968943
22.80000000 328.83946760 0.47968943
22.90000000 328.83946760 0.47968943
23.00000000 328.83946760 0.47968943
23.10000000 335.01664600 0.48870029
23.20000000 335.01664600 0.48870029
23.30000000 335.01664600 0.48870029
23.40000000 335.01664600 0.48870029
23.50000000 335.01664600 0.48870029
23.60000000 335.01664600 0.48870029
23.70000000 335.01664600 0.48870029
23.80000000 335.01664600 0.48870029
23.90000000 335.01664600 0.48870029
24.00000000 335.01664600 0.48870029
24.10000000 335.01664600 0.48870029
24.20000000 341.64460176 0.49836872
24.30000000 341.64460176 0.49836872
24.40000000 341.64460176 0.49836872
24.50000000 341.64460176 0.49836872
24.60000000 355.23721024 0.51819672
24.70000000 355.23721024 0.51819672
24.80000000 355.23721024 0.51819672
24.90000000 362.17438232 0.52831621
25.00000000 362.17438232 0.52831621
25.10000000 362.17438232 0.52831621
25.20000000 369.23042448 0.53860910
25.30000000 369.23042448 0.53860910
25.40000000 369.23042448 0.53860910
25.50000000 369.23042448 0.53860910
25.60000000 369.23042448 0.53860910
25.70000000 376.54855264 0.54928431
25.80000000 383.93120680 0.56005364
25.90000000 425.50917376 0.62070485
26.00000000 425.50917376 0.62070485
26.10000000 425.50917376 0.62070485
26.20000000 425.50917376 0.62070485
26.30000000 425.50917376 0.62070485
26.40000000 425.50917376 0.62070485
26.50000000 425.50917376 0.62070485
26.60000000 425.50917376 0.62070485
26.70000000 425.50917376 0.62070485
26.80000000 425.50917376 0.62070485
26.90000000 425.50917376 0.62070485
27.00000000 425.50917376 0.62070485
27.10000000 425.50917376 0.62070485
27.20000000 425.50917376 0.62070485
27.30000000 425.50917376 0.62070485
27.40000000 425.50917376 0.62070485
27.50000000 425.50917376 0.62070485
27.60000000 425.50917376 0.62070485
27.70000000 425.50917376 0.62070485
27.80000000 425.50917376 0.62070485
27.90000000 425.50917376 0.62070485
28.00000000 425.50917376 0.62070485
28.10000000 425.50917376 0.62070485
28.20000000 425.50917376 0.62070485
28.30000000 425.50917376 0.62070485
28.40000000 425.50917376 0.62070485
28.50000000 425.50917376 0.62070485
28.60000000 425.50917376 0.62070485
28.70000000 425.50917376 0.62070485
28.80000000 425.50917376 0.62070485
28.90000000 425.50917376 0.62070485
29.00000000 425.50917376 0.62070485
29.10000000 425.50917376 0.62070485
29.20000000 425.50917376 0.62070485
29.30000000 425.50917376 0.62070485
29.40000000 425.50917376 0.62070485
29.50000000 425.50917376 0.62070485
29.60000000 425.50917376 0.62070485
29.70000000 425.50917376 0.62070485
29.80000000 425.50917376 0.62070485
29.90000000 425.50917376 0.62070485
30.00000000 425.50917376 0.62070485
30.10000000 425.50917376 0.62070485
30.20000000 425.50917376 0.62070485
30.30000000 425.50917376 0.62070485
30.40000000 425.50917376 0.62070485
30.50000000 425.50917376 0.62070485
30.60000000 425.50917376 0.62070485
30.70000000 425.50917376 0.62070485
30.80000000 425.50917376 0.62070485
30.90000000 425.50917376 0.62070485
31.00000000 425.50917376 0.62070485
31.10000000 425.50917376 0.62070485
31.20000000 425.50917376 0.62070485
31.30000000 425.50917376 0.62070485
31.40000000 425.50917376 0.62070485
31.50000000 425.50917376 0.62070485
31.60000000 425.50917376 0.62070485
31.70000000 425.50917376 0.62070485
31.80000000 425.50917376 0.62070485
31.90000000 425.50917376 0.62070485
32.00000000 425.50917376 0.62070485
32.10000000 425.50917376 0.62070485
32.20000000 425.50917376 0.62070485
32.30000000 425.50917376 0.62070485
32.40000000 425.50917376 0.62070485
32.50000000 425.50917376 0.62070485
32.60000000 425.50917376 0.62070485
32.70000000 425.50917376 0.62070485
32.80000000 425.50917376 0.62070485
32.90000000 425.50917376 0.62070485
33.00000000 425.50917376 0.62070485
33.10000000 425.50917376 0.62070485
33.20000000 425.50917376 0.62070485
33.30000000 425.50917376 0.62070485
33.40000000 425.50917376 0.62070485
33.50000000 425.50917376 0.62070485
33.60000000 425.50917376 0.62070485
33.70000000 425.50917376 0.62070485
33.80000000 425.50917376 0.62070485
33.90000000 425.50917376 0.62070485
34.00000000 425.50917376 0.62070485
34.10000000 425.50917376 0.62070485
34.20000000 425.50917376 0.62070485
34.30000000 425.50917376 0.62070485
34.40000000 425.50917376 0.62070485
34.50000000 425.50917376 0.62070485
34.60000000 425.50917376 0.62070485
34.70000000 425.50917376 0.62070485
34.80000000 425.50917376 0.62070485
34.90000000 425.50917376 0.62070485
35.00000000 425.50917376 0.62070485
35.10000000 425.50917376 0.62070485
35.20000000 425.50917376 0.62070485
35.30000000 425.50917376 0.62070485
35.40000000 425.50917376 0.62070485
35.50000000 425.50917376 0.62070485
35.60000000 425.50917376 0.62070485
35.70000000 425.50917376 0.62070485
35.80000000 425.50917376 0.62070485
35.90000000 425.50917376 0.62070485
36.00000000 425.50917376 0.62070485
36.10000000 425.50917376 0.62070485
36.20000000 425.50917376 0.62070485
36.30000000 425.50917376 0.62070485
36.40000000 425.50917376 0.62070485
36.50000000 425.56197496 0.62078187
36.60000000 425.56197496 0.62078187
36.70000000 425.56197496 0.62078187
36.80000000 425.56197496 0.62078187
36.90000000 425.56197496 0.62078187
37.00000000 425.56197496 0.62078187
37.10000000 425.56197496 0.62078187
37.20000000 425.56197496 0.62078187
37.30000000 425.56197496 0.62078187
37.40000000 425.56197496 0.62078187
37.50000000 425.56197496 0.62078187
37.60000000 425.56197496 0.62078187
37.70000000 425.56197496 0.62078187
37.80000000 425.56197496 0.62078187
37.90000000 425.56197496 0.62078187
38.00000000 425.56197496 0.62078187
38.10000000 425.56197496 0.62078187
38.20000000 425.56197496 0.62078187
38.30000000 425.56197496 0.62078187
38.40000000 425.56197496 0.62078187
38.50000000 425.73995420 0.62104149
38.60000000 425.73995420 0.62104149
38.70000000 425.73995420 0.62104149
38.80000000 425.73995420 0.62104149
38.90000000 425.73995420 0.62104149
39.00000000 425.73995420 0.62104149
39.10000000 425.73995420 0.62104149
39.20000000 425.73995420 0.62104149
39.30000000 425.77247196 0.62108893
39.40000000 425.77247196 0.62108893
39.50000000 425.77247196 0.62108893
39.60000000 425.77247196 0.62108893
39.70000000 425.77247196 0.62108893
39.80000000 425.77247196 0.62108893
39.90000000 425.77247196 0.62108893
40.00000000 425.79667844 0.62112424
40.10000000 425.79667844 0.62112424
40.20000000 425.79667844 0.62112424
40.30000000 425.79667844 0.62112424
40.40000000 425.79667844 0.62112424
40.50000000 425.79667844 0.62112424
40.60000000 425.79667844 0.62112424
40.70000000 425.79667844 0.62112424
40.80000000 425.79667844 0.62112424
40.90000000 425.79667844 0.62112424
41.00000000 425.79667844 0.62112424
41.10000000 425.79667844 0.62112424
41.20000000 425.79667844 0.62112424
41.30000000 425.79667844 0.62112424
41.40000000 425.79667844 0.62112424
41.50000000 425.79667844 0.62112424
41.60000000 425.81067084 0.62114465
41.70000000 425.81067084 0.62114465
41.80000000 425.81067084 0.62114465
41.90000000 425.81067084 0.62114465
42.00000000 425.81067084 0.62114465
42.10000000 425.81067084 0.62114465
42.20000000 425.81067084 0.62114465
42.30000000 425.81067084 0.62114465
42.40000000 425.81067084 0.62114465
42.50000000 426.15758604 0.62165071
42.60000000 426.15758604 0.62165071
42.70000000 426.15758604 0.62165071
42.80000000 426.15758604 0.62165071
42.90000000 426.15758604 0.62165071
43.00000000 426.15758604 0.62165071
43.10000000 426.15758604 0.62165071
43.20000000 426.15758604 0.62165071
43.30000000 426.15758604 0.62165071
43.40000000 426.16608844 0.62166311
43.50000000 426.17322900 0.62167353
43.60000000 426.17322900 0.62167353
43.70000000 426.17322900 0.62167353
43.80000000 426.17322900 0.62167353
43.90000000 426.17322900 0.62167353
44.00000000 426.17322900 0.62167353
44.10000000 426.17322900 0.62167353
44.20000000 426.17322900 0.62167353
44.30000000 426.17322900 0.62167353
44.40000000 426.17996684 0.62168336
44.50000000 426.17996684 0.62168336
44.60000000 426.17996684 0.62168336
44.70000000 426.17996684 0.62168336
44.80000000 426.27569372 0.62182300
44.90000000 426.27569372 0.62182300
45.00000000 426.27569372 0.62182300
45.10000000 426.27569372 0.62182300
45.20000000 426.28201044 0.62183221
45.30000000 426.28201044 0.62183221
45.40000000 426.28201044 0.62183221
45.50000000 426.28201044 0.62183221
45.60000000 426.28201044 0.62183221
45.70000000 426.28201044 0.62183221
45.80000000 426.28201044 0.62183221
45.90000000 426.28201044 0.62183221
46.00000000 426.29550076 0.62185189
46.10000000 426.29550076 0.62185189
46.20000000 426.29550076 0.62185189
46.30000000 426.29550076 0.62185189
46.40000000 426.29550076 0.62185189
46.50000000 426.29550076 0.62185189
46.60000000 426.29550076 0.62185189
46.70000000 426.29550076 0.62185189
46.80000000 426.29550076 0.62185189
46.90000000 426.29550076 0.62185189
47.00000000 426.29550076 0.62185189
47.10000000 426.30339332 0.62186340
47.20000000 426.30339332 0.62186340
47.30000000 426.30339332 0.62186340
47.40000000 426.30339332 0.62186340
47.50000000 426.30339332 0.62186340
47.60000000 426.30339332 0.62186340
47.70000000 426.30694348 0.62186858
47.80000000 426.30694348 0.62186858
47.90000000 426.30694348 0.62186858
48.00000000 426.30694348 0.62186858
48.10000000 426.30694348 0.62186858
48.20000000 426.30694348 0.62186858
48.30000000 426.30694348 0.62186858
48.40000000 426.30694348 0.62186858
48.50000000 426.30870756 0.62187115
48.60000000 426.30870756 0.62187115
48.70000000 426.30870756 0.62187115
48.80000000 426.30870756 0.62187115
48.90000000 426.31162428 0.62187541
49.00000000 426.31162428 0.62187541
49.10000000 426.31162428 0.62187541
49.20000000 426.31162428 0.62187541
49.30000000 426.31162428 0.62187541
49.40000000 426.31162428 0.62187541
49.50000000 426.31162428 0.62187541
49.60000000 426.31162428 0.62187541
49.70000000 426.31784588 0.62188449
49.80000000 426.31784588 0.62188449
49.90000000 426.31784588 0.62188449
50.00000000 426.31784588 0.62188449
50.10000000 426.46154764 0.62209411
50.20000000 426.46154764 0.62209411
50.30000000 426.46154764 0.62209411
50.40000000 426.46154764 0.62209411
50.50000000 426.46154764 0.62209411
50.60000000 426.46154764 0.62209411
50.70000000 426.46154764 0.62209411
50.80000000 426.46342524 0.62209685
50.90000000 426.46342524 0.62209685
51.00000000 426.46342524 0.62209685
51.10000000 426.46342524 0.62209685
51.20000000 426.46750364 0.62210280
51.30000000 426.46750364 0.62210280
51.40000000 426.46750364 0.62210280
51.50000000 426.46750364 0.62210280
51.60000000 426.46750364 0.62210280
51.70000000 426.46750364 0.62210280
51.80000000 426.46750364 0.62210280
51.90000000 426.46750364 0.62210280
52.00000000 426.46750364 0.62210280
52.10000000 426.46750364 0.62210280
52.20000000 426.46750364 0.62210280
52.30000000 426.46750364 0.62210280
52.40000000 426.46919540 0.62210526
52.50000000 426.46919540 0.62210526
52.60000000 426.46919540 0.62210526
52.70000000 426.46919540 0.62210526
52.80000000 426.46919540 0.62210526
52.90000000 426.46919540 0.62210526
53.00000000 426.46919540 0.62210526
53.10000000 426.46919540 0.62210526
53.20000000 426.46919540 0.62210526
53.30000000 426.46919540 0.62210526
53.40000000 426.46919540 0.62210526
53.50000000 426.46919540 0.62210526
53.60000000 426.46919540 0.62210526
53.70000000 434.47132368 0.63377824
53.80000000 434.47132368 0.63377824
53.90000000 434.47132368 0.63377824
54.00000000 434.47132368 0.63377824
54.10000000 434.47132368 0.63377824
54.20000000 442.47130520 0.64544809
54.30000000 442.47130520 0.64544809
54.40000000 442.47229504 0.64544954
54.50000000 442.47229504 0.64544954
54.60000000 442.47229504 0.64544954
54.70000000 442.47229504 0.64544954
54.80000000 442.47229504 0.64544954
54.90000000 442.47472976 0.64545309
55.00000000 442.47472976 0.64545309
55.10000000 442.47472976 0.64545309
55.20000000 466.47466712 0.68046262
55.30000000 466.47466712 0.68046262
55.40000000 466.47466712 0.68046262
55.50000000 466.47466712 0.68046262
55.60000000 466.47466712 0.68046262
55.70000000 466.47466712 0.68046262
55.80000000 466.47466712 0.68046262
55.90000000 466.47466712 0.68046262
56.00000000 466.47466712 0.68046262
56.10000000 466.47466712 0.68046262
56.20000000 474.47464344 0.69213246
56.30000000 474.47464344 0.69213246
56.40000000 474.47464344 0.69213246
56.50000000 474.47464344 0.69213246
56.60000000 474.47464344 0.69213246
56.70000000 482.47461816 0.70380230
56.80000000 482.47461816 0.70380230
56.90000000 482.47461816 0.70380230
57.00000000 482.47461816 0.70380230
57.10000000 482.47461816 0.70380230
57.20000000 482.47461816 0.70380230
57.30000000 482.47461816 0.70380230
57.40000000 482.47461816 0.70380230
57.50000000 482.47461816 0.70380230
57.60000000 482.47461816 0.70380230
57.70000000 482.47461816 0.70380230
57.80000000 482.47461816 0.70380230
57.90000000 482.47461816 0.70380230
58.00000000 482.47461816 0.70380230
58.10000000 482.47461816 0.70380230
58.20000000 482.47461816 0.70380230
58.30000000 490.47458696 0.71547213
58.40000000 490.47458696 0.71547213
58.50000000 490.47458696 0.71547213
58.60000000 490.47458696 0.71547213
58.70000000 490.49086376 0.71549587
58.80000000 498.49083008 0.72716570
58.90000000 498.49083008 0.72716570
59.00000000 498.49083008 0.72716570
59.10000000 498.49083008 0.72716570
59.20000000 498.49083008 0.72716570
59.30000000 498.49083008 0.72716570
59.40000000 498.49083008 0.72716570
59.50000000 498.49083008 0.72716570
59.60000000 498.49083008 0.72716570
59.70000000 498.49083008 0.72716570
59.80000000 498.49083008 0.72716570
59.90000000 502.49081044 0.73300061
60.00000000 502.49081044 0.73300061
60.10000000 502.49081044 0.73300061
60.20000000 502.49081044 0.73300061
60.30000000 502.49081044 0.73300061
60.40000000 518.49072516 0.75634023
60.50000000 518.49072516 0.75634023
60.60000000 518.49072516 0.75634023
60.70000000 518.49072516 0.75634023
60.80000000 518.49072516 0.75634023
60.90000000 518.49072516 0.75634023
61.00000000 526.49067876 0.76801004
61.10000000 526.49067876 0.76801004
61.20000000 526.49067876 0.76801004
61.30000000 526.49067876 0.76801004
61.40000000 526.49067876 0.76801004
61.50000000 526.49067876 0.76801004
61.60000000 534.49062820 0.77967984
61.70000000 534.49062820 0.77967984
61.80000000 534.49062820 0.77967984
61.90000000 534.49062820 0.77967984
62.00000000 534.49062820 0.77967984
62.10000000 550.49051764 0.80301943
62.20000000 550.49958892 0.80303266
62.30000000 550.49958892 0.80303266
62.40000000 550.49958892 0.80303266
62.50000000 550.49958892 0.80303266
62.60000000 550.49958892 0.80303266
62.70000000 550.49958892 0.80303266
62.80000000 550.49958892 0.80303266
62.90000000 550.49958892 0.80303266
63.00000000 550.49958892 0.80303266
63.10000000 550.49958892 0.80303266
63.20000000 550.49958892 0.80303266
63.30000000 550.49958892 0.80303266
63.40000000 550.49958892 0.80303266
63.50000000 550.49958892 0.80303266
63.60000000 550.49958892 0.80303266
63.70000000 550.49958892 0.80303266
63.80000000 550.49958892 0.80303266
63.90000000 561.20348252 0.81864680
64.00000000 561.20348252 0.81864680
64.10000000 561.20348252 0.81864680
64.20000000 561.20348252 0.81864680
64.30000000 561.20348252 0.81864680
64.40000000 561.20348252 0.81864680
64.50000000 561.20348252 0.81864680
64.60000000 561.20348252 0.81864680
64.70000000 561.20348252 0.81864680
64.80000000 561.20348252 0.81864680
64.90000000 561.20348252 0.81864680
65.00000000 561.20348252 0.81864680
65.10000000 569.20339116 0.83031654
65.20000000 569.20339116 0.83031654
65.30000000 569.20339116 0.83031654
65.40000000 569.20339116 0.83031654
65.50000000 569.20339116 0.83031654
65.60000000 569.20339116 0.83031654
65.70000000 569.20339116 0.83031654
65.80000000 577.20328884 0.84198626
65.90000000 577.20328884 0.84198626
66.00000000 577.20328884 0.84198626
66.10000000 577.20328884 0.84198626
66.20000000 577.20328884 0.84198626
66.30000000 577.20328884 0.84198626
66.40000000 585.20317372 0.85365597
66.50000000 585.20317372 0.85365597
66.60000000 585.20317372 0.85365597
66.70000000 585.20317372 0.85365597
66.80000000 585.20317372 0.85365597
66.90000000 585.20317372 0.85365597
67.00000000 585.20317372 0.85365597
67.10000000 593.20304340 0.86532566
67.20000000 593.20304340 0.86532566
67.30000000 593.20304340 0.86532566
67.40000000 593.20304340 0.86532566
67.50000000 593.20304340 0.86532566
67.60000000 593.20304340 0.86532566
67.70000000 593.20304340 0.86532566
67.80000000 593.20304340 0.86532566
67.90000000 593.20304340 0.86532566
68.00000000 593.20304340 0.86532566
68.10000000 593.20304340 0.86532566
68.20000000 593.20304340 0.86532566
68.30000000 593.20304340 0.86532566
68.40000000 593.20304340 0.86532566
68.50000000 593.20981220 0.86533553
68.60000000 593.20981220 0.86533553
68.70000000 593.20981220 0.86533553
68.80000000 593.20981220 0.86533553
68.90000000 593.20981220 0.86533553
69.00000000 593.20981220 0.86533553
69.10000000 601.20961524 0.87700512
69.20000000 601.20961524 0.87700512
69.30000000 601.20961524 0.87700512
69.40000000 601.20961524 0.87700512
69.50000000 601.20961524 0.87700512
69.60000000 601.20961524 0.87700512
69.70000000 601.20961524 0.87700512
69.80000000 601.20961524 0.87700512
69.90000000 625.20892548 0.91201373
70.00000000 625.20892548 0.91201373
70.10000000 625.20892548 0.91201373
70.20000000 625.20892548 0.91201373
70.30000000 625.20892548 0.91201373
70.40000000 625.20892548 0.91201373
70.50000000 625.20892548 0.91201373
70.60000000 625.20892548 0.91201373
70.70000000 625.20892548 0.91201373
70.80000000 625.20892548 0.91201373
70.90000000 625.20892548 0.91201373
71.00000000 625.20892548 0.91201373
71.10000000 625.20892548 0.91201373
71.20000000 625.20892548 0.91201373
71.30000000 625.20892548 0.91201373
71.40000000 633.21081124 0.92368636
71.50000000 633.21081124 0.92368636
71.60000000 633.21081124 0.92368636
71.70000000 633.21081124 0.92368636
71.80000000 633.21081124 0.92368636
71.90000000 633.21081124 0.92368636
72.00000000 633.21081124 0.92368636
72.10000000 633.21081124 0.92368636
72.20000000 633.21081124 0.92368636
72.30000000 633.21081124 0.92368636
72.40000000 633.21081124 0.92368636
72.50000000 633.21081124 0.92368636
72.60000000 633.21081124 0.92368636
72.70000000 633.21081124 0.92368636
72.80000000 633.21081124 0.92368636
72.90000000 633.21081124 0.92368636
73.00000000 637.21057028 0.92952095
73.10000000 637.21057028 0.92952095
73.20000000 637.21057028 0.92952095
73.30000000 637.21057028 0.92952095
73.40000000 637.21057028 0.92952095
73.50000000 637.21057028 0.92952095
73.60000000 637.21057028 0.92952095
73.70000000 637.21057028 0.92952095
73.80000000 637.21057028 0.92952095
73.90000000 653.20935956 0.95285893
74.00000000 653.20935956 0.95285893
74.10000000 653.20935956 0.95285893
74.20000000 653.20935956 0.95285893
74.30000000 653.20935956 0.95285893
74.40000000 653.20935956 0.95285893
74.50000000 653.20935956 0.95285893
74.60000000 653.20935956 0.95285893
74.70000000 653.20935956 0.95285893
74.80000000 661.20857980 0.96452767
74.90000000 661.20857980 0.96452767
75.00000000 661.20857980 0.96452767
75.10000000 661.20857980 0.96452767
75.20000000 661.20857980 0.96452767
75.30000000 661.20857980 0.96452767
75.40000000 661.20857980 0.96452767
75.50000000 661.20857980 0.96452767
75.60000000 661.20857980 0.96452767
75.70000000 661.20857980 0.96452767
75.80000000 661.20857980 0.96452767
75.90000000 661.20857980 0.96452767
76.00000000 661.20857980 0.96452767
76.10000000 661.20857980 0.96452767
76.20000000 661.20857980 0.96452767
76.30000000 661.20857980 0.96452767
76.40000000 661.20857980 0.96452767
76.50000000 661.20857980 0.96452767
76.60000000 661.36683980 0.96475853
76.70000000 661.36683980 0.96475853
76.80000000 669.36540204 0.97642630
76.90000000 669.36540204 0.97642630
77.00000000 669.36540204 0.97642630
77.10000000 669.36540204 0.97642630
77.20000000 669.36540204 0.97642630
77.30000000 669.36540204 0.97642630
77.40000000 669.36540204 0.97642630
77.50000000 669.36540204 0.97642630
77.60000000 669.36540204 0.97642630
77.70000000 669.36540204 0.97642630
77.80000000 669.36540204 0.97642630
77.90000000 677.36329124 0.98809310
78.00000000 677.36329124 0.98809310
78.10000000 677.36329124 0.98809310
78.20000000 677.36329124 0.98809310
78.30000000 677.36329124 0.98809310
78.40000000 677.36329124 0.98809310
78.50000000 677.36329124 0.98809310
78.60000000 677.36329124 0.98809310
78.70000000 677.36329124 0.98809310
78.80000000 677.36329124 0.98809310
78.90000000 677.36329124 0.98809310
79.00000000 677.36329124 0.98809310
79.10000000 677.36329124 0.98809310
79.20000000 677.36329124 0.98809310
79.30000000 677.36329124 0.98809310
79.40000000 677.51051000 0.98830785
79.50000000 677.51051000 0.98830785
79.60000000 677.51051000 0.98830785
79.70000000 677.51051000 0.98830785
79.80000000 677.51051000 0.98830785
79.90000000 677.51051000 0.98830785
80.00000000 677.51051000 0.98830785
80.10000000 677.51051000 0.98830785
80.20000000 677.51051000 0.98830785
80.30000000 677.51051000 0.98830785
80.40000000 677.51051000 0.98830785
80.50000000 677.51051000 0.98830785
80.60000000 677.51051000 0.98830785
80.70000000 677.51051000 0.98830785
80.80000000 677.51051000 0.98830785
80.90000000 677.51051000 0.98830785
81.00000000 677.51051000 0.98830785
81.10000000 677.51051000 0.98830785
81.20000000 677.51051000 0.98830785
81.30000000 677.51051000 0.98830785
81.40000000 677.51051000 0.98830785
81.50000000 677.51051000 0.98830785
81.60000000 677.51051000 0.98830785
81.70000000 677.51051000 0.98830785
81.80000000 677.51051000 0.98830785
81.90000000 677.51051000 0.98830785
82.00000000 677.51051000 0.98830785
82.10000000 677.51051000 0.98830785
82.20000000 677.51051000 0.98830785
82.30000000 677.51051000 0.98830785
82.40000000 677.51051000 0.98830785
82.50000000 677.51051000 0.98830785
82.60000000 677.51051000 0.98830785
82.70000000 677.51051000 0.98830785
82.80000000 677.51051000 0.98830785
82.90000000 677.51051000 0.98830785
83.00000000 677.51051000 0.98830785
83.10000000 677.51051000 0.98830785
83.20000000 677.51051000 0.98830785
83.30000000 677.51051000 0.98830785
83.40000000 677.51051000 0.98830785
83.50000000 677.51051000 0.98830785
83.60000000 677.51051000 0.98830785
83.70000000 677.51051000 0.98830785
83.80000000 677.51051000 0.98830785
83.90000000 677.51051000 0.98830785
84.00000000 677.51051000 0.98830785
84.10000000 677.51051000 0.98830785
84.20000000 685.49442904 0.99995427
84.30000000 685.49442904 0.99995427
84.40000000 685.49442904 0.99995427
84.50000000 685.49442904 0.99995427
84.60000000 685.49442904 0.99995427
84.70000000 685.49442904 0.99995427
84.80000000 685.49442904 0.99995427
84.90000000 685.49442904 0.99995427
85.00000000 685.49442904 0.99995427
85.10000000 685.49442904 0.99995427
85.20000000 685.49442904 0.99995427
85.30000000 685.49442904 0.99995427
85.40000000 685.49442904 0.99995427
85.50000000 685.49442904 0.99995427
85.60000000 685.49442904 0.99995427
85.70000000 685.49442904 0.99995427
85.80000000 685.49442904 0.99995427
85.90000000 685.49442904 0.99995427
86.00000000 685.49442904 0.99995427
86.10000000 685.49442904 0.99995427
86.20000000 685.52577856 1.00000000
86.30000000 685.52577856 1.00000000
86.40000000 685.52577856 1.00000000
86.50000000 685.52577856 1.00000000
86.60000000 685.52577856 1.00000000
86.70000000 685.52577856 1.00000000
86.80000000 685.52577856 1.00000000
86.90000000 685.52577856 1.00000000
87.00000000 685.52577856 1.00000000
87.10000000 685.52577856 1.00000000
87.20000000 685.52577856 1.00000000
87.30000000 685.52577856 1.00000000
87.40000000 685.52577856 1.00000000
87.50000000 685.52577856 1.00000000
87.60000000 685.52577856 1.00000000
87.70000000 685.52577856 1.00000000
87.80000000 685.52577856 1.00000000
87.90000000 685.52577856 1.00000000
88.00000000 685.52577856 1.00000000
88.10000000 685.52577856 1.00000000
88.20000000 685.52577856 1.00000000
88.30000000 685.52577856 1.00000000
88.40000000 685.52577856 1.00000000
88.50000000 685.52577856 1.00000000
88.60000000 685.52577856 1.00000000
88.70000000 685.52577856 1.00000000
88.80000000 685.52577856 1.00000000
88.90000000 685.52577856 1.00000000
89.00000000 685.52577856 1.00000000
89.10000000 685.52577856 1.00000000
89.20000000 685.52577856 1.00000000
89.30000000 685.52577856 1.00000000
89.40000000 685.52577856 1.00000000
89.50000000 685.52577856 1.00000000
89.60000000 685.52577856 1.00000000
89.70000000 685.52577856 1.00000000
89.80000000 685.52577856 1.00000000
89.90000000 685.52577856 1.00000000
90.00000000 685.52577856 1.00000000
