# Theta (deg), Enclosed Intensity, Normalized Enclosed Intensity
0.00000000 0.00000000 0.00000000
0.10000000 0.00000000 0.00000000
0.20000000 0.00000000 0.00000000
0.30000000 0.00000000 0.00000000
0.40000000 0.00000000 0.00000000
0.50000000 0.00000000 0.00000000
0.60000000 0.00000000 0.00000000
0.70000000 3.98655524 0.00608309
0.80000000 4.00806156 0.00611590
0.90000000 4.08738068 0.00623694
1.00000000 4.08738068 0.00623694
1.10000000 4.08810292 0.00623804
1.20000000 4.08810292 0.00623804
1.30000000 4.08810292 0.00623804
1.40000000 4.08810292 0.00623804
1.50000000 4.08810292 0.00623804
1.60000000 4.08810292 0.00623804
1.70000000 4.08810292 0.00623804
1.80000000 12.06107180 0.01840400
1.90000000 12.06107180 0.01840400
2.00000000 12.06107180 0.01840400
2.10000000 12.06107180 0.01840400
2.20000000 12.06107180 0.01840400
2.30000000 12.06107180 0.01840400
2.40000000 12.06107180 0.01840400
2.50000000 12.06609628 0.01841166
2.60000000 12.06609628 0.01841166
2.70000000 16.05260324 0.02449468
2.80000000 16.05426420 0.02449721
2.90000000 16.05426420 0.02449721
3.00000000 24.02634828 0.03666182
3.10000000 24.03700036 0.03667808
3.20000000 24.03700036 0.03667808
3.30000000 24.03700036 0.03667808
3.40000000 24.03700036 0.03667808
3.50000000 24.03700036 0.03667808
3.60000000 27.78313332 0.04239430
3.70000000 27.78784700 0.04240149
3.80000000 27.78784700 0.04240149
3.90000000 27.78784700 0.04240149
4.00000000 35.76066788 0.05456723
4.10000000 35.76066788 0.05456723
4.20000000 47.71300016 0.07280530
4.30000000 47.71390344 0.07280668
4.40000000 47.71390344 0.07280668
4.50000000 47.71756016 0.07281226
4.60000000 47.71756016 0.07281226
4.70000000 47.71756016 0.07281226
4.80000000 47.71756016 0.07281226
4.90000000 47.77959416 0.07290692
5.00000000 47.77959416 0.07290692
5.10000000 47.80713720 0.07294894
5.20000000 55.75836600 0.08508173
5.30000000 55.75836600 0.08508173
5.40000000 63.73062032 0.09724660
5.50000000 63.73062032 0.09724660
5.60000000 71.96833168 0.10981653
5.70000000 79.85239968 0.12184683
5.80000000 79.85239968 0.12184683
5.90000000 79.85239968 0.12184683
6.00000000 79.85239968 0.12184683
6.10000000 79.85239968 0.12184683
6.20000000 79.85239968 0.12184683
6.30000000 79.85239968 0.12184683
6.40000000 79.85239968 0.12184683
6.50000000 79.85239968 0.12184683
6.60000000 79.85239968 0.12184683
6.70000000 79.85239968 0.12184683
6.80000000 79.88739432 0.12190023
6.90000000 79.88739432 0.12190023
7.00000000 95.82402016 0.14621794
7.10000000 99.80866884 0.15229812
7.20000000 99.80866884 0.15229812
7.30000000 99.80866884 0.15229812
7.40000000 103.74225412 0.15830038
7.50000000 103.74225412 0.15830038
7.60000000 103.74225412 0.15830038
7.70000000 103.74225412 0.15830038
7.80000000 103.74225412 0.15830038
7.90000000 103.74435692 0.15830358
8.00000000 103.74435692 0.15830358
8.10000000 103.74435692 0.15830358
8.20000000 103.79392640 0.15837922
8.30000000 103.79392640 0.15837922
8.40000000 103.79392640 0.15837922
8.50000000 111.75303776 0.17052404
8.60000000 111.75303776 0.17052404
8.70000000 127.68869856 0.19484027
8.80000000 127.68869856 0.19484027
8.90000000 127.68869856 0.19484027
9.00000000 127.69194616 0.19484523
9.10000000 127.69194616 0.19484523
9.20000000 127.69194616 0.19484523
9.30000000 127.69194616 0.19484523
9.40000000 127.69194616 0.19484523
9.50000000 127.69287872 0.19484665
9.60000000 135.60820144 0.20692465
9.70000000 135.62465784 0.20694976
9.80000000 135.62465784 0.20694976
9.90000000 135.62548400 0.20695102
10.00000000 135.62548400 0.20695102
10.10000000 143.56948664 0.21907278
10.20000000 143.56948664 0.21907278
10.30000000 143.57062880 0.21907452
10.40000000 167.46082040 0.25552858
10.50000000 167.46707000 0.25553812
10.60000000 167.46707000 0.25553812
10.70000000 167.46707000 0.25553812
10.80000000 167.46707000 0.25553812
10.90000000 167.46707000 0.25553812
11.00000000 167.46707000 0.25553812
11.10000000 167.46707000 0.25553812
11.20000000 167.57749728 0.25570662
11.30000000 167.57749728 0.25570662
11.40000000 174.00669064 0.26551693
11.50000000 189.82680184 0.28965685
11.60000000 189.82680184 0.28965685
11.70000000 189.82680184 0.28965685
11.80000000 189.82680184 0.28965685
11.90000000 193.79295408 0.29570880
12.00000000 193.79295408 0.29570880
12.10000000 201.73978528 0.30783488
12.20000000 209.69306360 0.31997079
12.30000000 209.69306360 0.31997079
12.40000000 209.82135256 0.32016654
12.50000000 217.60770480 0.33204775
12.60000000 217.60770480 0.33204775
12.70000000 217.60770480 0.33204775
12.80000000 226.22796348 0.34520140
12.90000000 226.22796348 0.34520140
13.00000000 226.27784676 0.34527752
13.10000000 226.27784676 0.34527752
13.20000000 226.27784676 0.34527752
13.30000000 234.14195148 0.35727736
13.40000000 234.14195148 0.35727736
13.50000000 234.14195148 0.35727736
13.60000000 234.14195148 0.35727736
13.70000000 242.04644460 0.36933883
13.80000000 242.04644460 0.36933883
13.90000000 242.04644460 0.36933883
14.00000000 257.89700540 0.39352522
14.10000000 257.89700540 0.39352522
14.20000000 257.89700540 0.39352522
14.30000000 265.84270804 0.40564957
14.40000000 265.84876340 0.40565881
14.50000000 265.84876340 0.40565881
14.60000000 265.84876340 0.40565881
14.70000000 265.84876340 0.40565881
14.80000000 281.34676564 0.42930722
14.90000000 281.34676564 0.42930722
15.00000000 281.34676564 0.42930722
15.10000000 281.34676564 0.42930722
15.20000000 281.34676564 0.42930722
15.30000000 282.20682316 0.43061958
15.40000000 287.84654388 0.43922524
15.50000000 310.19901980 0.47333290
15.60000000 310.19901980 0.47333290
15.70000000 310.19901980 0.47333290
15.80000000 310.19901980 0.47333290
15.90000000 310.19901980 0.47333290
16.00000000 310.19901980 0.47333290
16.10000000 310.19901980 0.47333290
16.20000000 318.10282700 0.48539332
16.30000000 318.10282700 0.48539332
16.40000000 329.98223288 0.50352011
16.50000000 329.98223288 0.50352011
16.60000000 329.98223288 0.50352011
16.70000000 329.98223288 0.50352011
16.80000000 329.98223288 0.50352011
16.90000000 329.98223288 0.50352011
17.00000000 329.98223288 0.50352011
17.10000000 329.98223288 0.50352011
17.20000000 329.98223288 0.50352011
17.30000000 329.98223288 0.50352011
17.40000000 329.98223288 0.50352011
17.50000000 329.98223288 0.50352011
17.60000000 329.98223288 0.50352011
17.70000000 329.98223288 0.50352011
17.80000000 329.98223288 0.50352011
17.90000000 329.98223288 0.50352011
18.00000000 329.98223288 0.50352011
18.10000000 329.98223288 0.50352011
18.20000000 329.98223288 0.50352011
18.30000000 329.98223288 0.50352011
18.40000000 330.21682088 0.50387807
18.50000000 345.92937416 0.52785387
18.60000000 354.31050884 0.54064265
18.70000000 354.31050884 0.54064265
18.80000000 354.31050884 0.54064265
18.90000000 354.31050884 0.54064265
19.00000000 362.21055892 0.55269734
19.10000000 362.21055892 0.55269734
19.20000000 362.21055892 0.55269734
19.30000000 362.21055892 0.55269734
19.40000000 362.21055892 0.55269734
19.50000000 362.21055892 0.55269734
19.60000000 362.21055892 0.55269734
19.70000000 362.21055892 0.55269734
19.80000000 362.21055892 0.55269734
19.90000000 362.21055892 0.55269734
20.00000000 362.21055892 0.55269734
20.10000000 369.85406012 0.56436056
20.20000000 369.85406012 0.56436056
20.30000000 369.85406012 0.56436056
20.40000000 369.85406012 0.56436056
20.50000000 369.85406012 0.56436056
20.60000000 369.85406012 0.56436056
20.70000000 377.59167580 0.57616740
20.80000000 377.59167580 0.57616740
20.90000000 377.59167580 0.57616740
21.00000000 377.59167580 0.57616740
21.10000000 377.59167580 0.57616740
21.20000000 377.59167580 0.57616740
21.30000000 377.59167580 0.57616740
21.40000000 377.59167580 0.57616740
21.50000000 385.42379276 0.58811843
21.60000000 385.42379276 0.58811843
21.70000000 385.42379276 0.58811843
21.80000000 393.28238084 0.60010985
21.90000000 393.28238084 0.60010985
22.00000000 393.28238084 0.60010985
22.10000000 393.28238084 0.60010985
22.20000000 393.28238084 0.60010985
22.30000000 400.77010788 0.61153538
22.40000000 400.77010788 0.61153538
22.50000000 400.77010788 0.61153538
22.60000000 400.77010788 0.61153538
22.70000000 400.77010788 0.61153538
22.80000000 400.77010788 0.61153538
22.90000000 400.77010788 0.61153538
23.00000000 400.77010788 0.61153538
23.10000000 400.77010788 0.61153538
23.20000000 408.28667532 0.62300492
23.30000000 408.28667532 0.62300492
23.40000000 408.42572364 0.62321709
23.50000000 408.42572364 0.62321709
23.60000000 408.42572364 0.62321709
23.70000000 408.42572364 0.62321709
23.80000000 408.42724324 0.62321941
23.90000000 408.42724324 0.62321941
24.00000000 408.42724324 0.62321941
24.10000000 408.42724324 0.62321941
24.20000000 408.42724324 0.62321941
24.30000000 416.14082964 0.63498958
24.40000000 422.68178612 0.64497043
24.50000000 422.68178612 0.64497043
24.60000000 422.68178612 0.64497043
24.70000000 438.21250116 0.66866875
24.80000000 438.21250116 0.66866875
24.90000000 438.21250116 0.66866875
25.00000000 446.01507980 0.68057471
25.10000000 446.01507980 0.68057471
25.20000000 446.01507980 0.68057471
25.30000000 446.01507980 0.68057471
25.40000000 446.01507980 0.68057471
25.50000000 446.01507980 0.68057471
25.60000000 446.01507980 0.68057471
25.70000000 450.15536932 0.68689238
25.80000000 457.22339180 0.69767749
25.90000000 457.22339180 0.69767749
26.00000000 457.22664692 0.69768245
26.10000000 457.22664692 0.69768245
26.20000000 457.22664692 0.69768245
26.30000000 457.22664692 0.69768245
26.40000000 457.22664692 0.69768245
26.50000000 457.22664692 0.69768245
26.60000000 457.31086988 0.69781097
26.70000000 457.31086988 0.69781097
26.80000000 457.31086988 0.69781097
26.90000000 457.31086988 0.69781097
27.00000000 457.31086988 0.69781097
27.10000000 457.31086988 0.69781097
27.20000000 457.31086988 0.69781097
27.30000000 457.31086988 0.69781097
27.40000000 457.31086988 0.69781097
27.50000000 472.30420732 0.72068931
27.60000000 472.30420732 0.72068931
27.70000000 472.30420732 0.72068931
27.80000000 472.30420732 0.72068931
27.90000000 472.30420732 0.72068931
28.00000000 472.30420732 0.72068931
28.10000000 472.30420732 0.72068931
28.20000000 472.30420732 0.72068931
28.30000000 472.30420732 0.72068931
28.40000000 478.22012700 0.72971642
28.50000000 478.22012700 0.72971642
28.60000000 478.22012700 0.72971642
28.70000000 478.22012700 0.72971642
28.80000000 485.94435524 0.74150282
28.90000000 485.94435524 0.74150282
29.00000000 485.94435524 0.74150282
29.10000000 485.94435524 0.74150282
29.20000000 485.94435524 0.74150282
29.30000000 485.94435524 0.74150282
29.40000000 485.94435524 0.74150282
29.50000000 485.94435524 0.74150282
29.60000000 485.94435524 0.74150282
29.70000000 485.94435524 0.74150282
29.80000000 485.94435524 0.74150282
29.90000000 485.94435524 0.74150282
30.00000000 485.94435524 0.74150282
30.10000000 485.94435524 0.74150282
30.20000000 485.94435524 0.74150282
30.30000000 485.94435524 0.74150282
30.40000000 485.94435524 0.74150282
30.50000000 485.94435524 0.74150282
30.60000000 485.94435524 0.74150282
30.70000000 485.94435524 0.74150282
30.80000000 485.94435524 0.74150282
30.90000000 485.94435524 0.74150282
31.00000000 485.94435524 0.74150282
31.10000000 485.94435524 0.74150282
31.20000000 485.94435524 0.74150282
31.30000000 485.94435524 0.74150282
31.40000000 485.94435524 0.74150282
31.50000000 485.94435524 0.74150282
31.60000000 485.94435524 0.74150282
31.70000000 485.94435524 0.74150282
31.80000000 485.94435524 0.74150282
31.90000000 493.21691108 0.75260002
32.00000000 493.21691108 0.75260002
32.10000000 493.21691108 0.75260002
32.20000000 493.21691108 0.75260002
32.30000000 493.21691108 0.75260002
32.40000000 493.21691108 0.75260002
32.50000000 500.66124428 0.76395933
32.60000000 500.66124428 0.76395933
32.70000000 500.66591660 0.76396646
32.80000000 500.66591660 0.76396646
32.90000000 500.66591660 0.76396646
33.00000000 500.66591660 0.76396646
33.10000000 500.66591660 0.76396646
33.20000000 500.66591660 0.76396646
33.30000000 500.66591660 0.76396646
33.40000000 500.66591660 0.76396646
33.50000000 500.66591660 0.76396646
33.60000000 500.66591660 0.76396646
33.70000000 500.66591660 0.76396646
33.80000000 500.66591660 0.76396646
33.90000000 500.73386972 0.76407015
34.00000000 500.73386972 0.76407015
34.10000000 500.73386972 0.76407015
34.20000000 500.73386972 0.76407015
34.30000000 500.73386972 0.76407015
34.40000000 500.73386972 0.76407015
34.50000000 500.73386972 0.76407015
34.60000000 500.73386972 0.76407015
34.70000000 500.73386972 0.76407015
34.80000000 512.22916876 0.78161084
34.90000000 512.22916876 0.78161084
35.00000000 512.22916876 0.78161084
35.10000000 512.22916876 0.78161084
35.20000000 512.22916876 0.78161084
35.30000000 512.22916876 0.78161084
35.40000000 512.22916876 0.78161084
35.50000000 512.22916876 0.78161084
35.60000000 512.22916876 0.78161084
35.70000000 512.22916876 0.78161084
35.80000000 512.22916876 0.78161084
35.90000000 512.22916876 0.78161084
36.00000000 512.22916876 0.78161084
36.10000000 512.22916876 0.78161084
36.20000000 518.67937684 0.79145321
36.30000000 525.82135276 0.80235116
36.40000000 525.82135276 0.80235116
36.50000000 525.82135276 0.80235116
36.60000000 525.82135276 0.80235116
36.70000000 525.82135276 0.80235116
36.80000000 525.82135276 0.80235116
36.90000000 525.82135276 0.80235116
37.00000000 525.82135276 0.80235116
37.10000000 525.82135276 0.80235116
37.20000000 532.67665532 0.81281167
37.30000000 532.67665532 0.81281167
37.40000000 532.67665532 0.81281167
37.50000000 532.67665532 0.81281167
37.60000000 532.67665532 0.81281167
37.70000000 532.72524380 0.81288581
37.80000000 532.72524380 0.81288581
37.90000000 546.95288092 0.83459577
38.00000000 546.95288092 0.83459577
38.10000000 546.95288092 0.83459577
38.20000000 546.95288092 0.83459577
38.30000000 546.95288092 0.83459577
38.40000000 546.95288092 0.83459577
38.50000000 550.59824344 0.84015824
38.60000000 550.59824344 0.84015824
38.70000000 550.59824344 0.84015824
38.80000000 550.59824344 0.84015824
38.90000000 550.59824344 0.84015824
39.00000000 550.59824344 0.84015824
39.10000000 550.59824344 0.84015824
39.20000000 553.31616904 0.84430552
39.30000000 553.31616904 0.84430552
39.40000000 553.31616904 0.84430552
39.50000000 553.31616904 0.84430552
39.60000000 553.31616904 0.84430552
39.70000000 553.31616904 0.84430552
39.80000000 553.31616904 0.84430552
39.90000000 553.31616904 0.84430552
40.00000000 553.31616904 0.84430552
40.10000000 553.31616904 0.84430552
40.20000000 553.31616904 0.84430552
40.30000000 553.31616904 0.84430552
40.40000000 553.31616904 0.84430552
40.50000000 553.31616904 0.84430552
40.60000000 553.31616904 0.84430552
40.70000000 553.31616904 0.84430552
40.80000000 553.31616904 0.84430552
40.90000000 553.31616904 0.84430552
41.00000000 553.31616904 0.84430552
41.10000000 553.31616904 0.84430552
41.20000000 553.31616904 0.84430552
41.30000000 553.31616904 0.84430552
41.40000000 553.31616904 0.84430552
41.50000000 553.32296536 0.84431589
41.60000000 553.32296536 0.84431589
41.70000000 553.32296536 0.84431589
41.80000000 553.32296536 0.84431589
41.90000000 553.32296536 0.84431589
42.00000000 553.32296536 0.84431589
42.10000000 558.13419128 0.85165734
42.20000000 558.20678816 0.85176812
42.30000000 558.20678816 0.85176812
42.40000000 558.20678816 0.85176812
42.50000000 558.20678816 0.85176812
42.60000000 558.20678816 0.85176812
42.70000000 558.20678816 0.85176812
42.80000000 558.20678816 0.85176812
42.90000000 558.20678816 0.85176812
43.00000000 558.20678816 0.85176812
43.10000000 558.20678816 0.85176812
43.20000000 558.20678816 0.85176812
43.30000000 558.20678816 0.85176812
43.40000000 558.20678816 0.85176812
43.50000000 558.20678816 0.85176812
43.60000000 558.20678816 0.85176812
43.70000000 558.20678816 0.85176812
43.80000000 564.05262760 0.86068829
43.90000000 564.05262760 0.86068829
44.00000000 564.05262760 0.86068829
44.10000000 564.05262760 0.86068829
44.20000000 564.05262760 0.86068829
44.30000000 564.05262760 0.86068829
44.40000000 564.05262760 0.86068829
44.50000000 564.05262760 0.86068829
44.60000000 564.05262760 0.86068829
44.70000000 564.05262760 0.86068829
44.80000000 570.49137392 0.87051318
44.90000000 570.49137392 0.87051318
45.00000000 570.49137392 0.87051318
45.10000000 570.49137392 0.87051318
45.20000000 570.49137392 0.87051318
45.30000000 570.49137392 0.87051318
45.40000000 570.49137392 0.87051318
45.50000000 570.49137392 0.87051318
45.60000000 570.49137392 0.87051318
45.70000000 570.49137392 0.87051318
45.80000000 570.49137392 0.87051318
45.90000000 570.49137392 0.87051318
46.00000000 577.55883504 0.88129742
46.10000000 577.55883504 0.88129742
46.20000000 577.55883504 0.88129742
46.30000000 577.55883504 0.88129742
46.40000000 577.55883504 0.88129742
46.50000000 577.55883504 0.88129742
46.60000000 577.55883504 0.88129742
46.70000000 577.55883504 0.88129742
46.80000000 577.55883504 0.88129742
46.90000000 577.55883504 0.88129742
47.00000000 577.55883504 0.88129742
47.10000000 577.55883504 0.88129742
47.20000000 577.55883504 0.88129742
47.30000000 577.55883504 0.88129742
47.40000000 577.55883504 0.88129742
47.50000000 577.55883504 0.88129742
47.60000000 577.55883504 0.88129742
47.70000000 577.58519112 0.88133764
47.80000000 577.58519112 0.88133764
47.90000000 577.58519112 0.88133764
48.00000000 577.58519112 0.88133764
48.10000000 577.58519112 0.88133764
48.20000000 577.58519112 0.88133764
48.30000000 577.58519112 0.88133764
48.40000000 577.58519112 0.88133764
48.50000000 577.58519112 0.88133764
48.60000000 577.58519112 0.88133764
48.70000000 577.58519112 0.88133764
48.80000000 577.58519112 0.88133764
48.90000000 577.58519112 0.88133764
49.00000000 577.58519112 0.88133764
49.10000000 577.58519112 0.88133764
49.20000000 577.58519112 0.88133764
49.30000000 577.58519112 0.88133764
49.40000000 577.58519112 0.88133764
49.50000000 577.58519112 0.88133764
49.60000000 577.58519112 0.88133764
49.70000000 577.58519112 0.88133764
49.80000000 578.54231776 0.88279812
49.90000000 578.54231776 0.88279812
50.00000000 578.54231776 0.88279812
50.10000000 578.54231776 0.88279812
50.20000000 578.54231776 0.88279812
50.30000000 578.54231776 0.88279812
50.40000000 578.68625696 0.88301775
50.50000000 578.68625696 0.88301775
50.60000000 578.68625696 0.88301775
50.70000000 578.68625696 0.88301775
50.80000000 578.68625696 0.88301775
50.90000000 578.68625696 0.88301775
51.00000000 578.68625696 0.88301775
51.10000000 578.68625696 0.88301775
51.20000000 578.68625696 0.88301775
51.30000000 578.68625696 0.88301775
51.40000000 578.68625696 0.88301775
51.50000000 578.68625696 0.88301775
51.60000000 578.68625696 0.88301775
51.70000000 578.68625696 0.88301775
51.80000000 578.68625696 0.88301775
51.90000000 578.68625696 0.88301775
52.00000000 578.68625696 0.88301775
52.10000000 578.69881704 0.88303692
52.20000000 578.69881704 0.88303692
52.30000000 578.69881704 0.88303692
52.40000000 578.69881704 0.88303692
52.50000000 578.69881704 0.88303692
52.60000000 578.70106880 0.88304036
52.70000000 578.70106880 0.88304036
52.80000000 578.70106880 0.88304036
52.90000000 578.70106880 0.88304036
53.00000000 578.70106880 0.88304036
53.10000000 578.70106880 0.88304036
53.20000000 578.70106880 0.88304036
53.30000000 578.70106880 0.88304036
53.40000000 578.70106880 0.88304036
53.50000000 578.70106880 0.88304036
53.60000000 578.70106880 0.88304036
53.70000000 578.70106880 0.88304036
53.80000000 578.70106880 0.88304036
53.90000000 578.70106880 0.88304036
54.00000000 578.70106880 0.88304036
54.10000000 578.70106880 0.88304036
54.20000000 578.70106880 0.88304036
54.30000000 578.70106880 0.88304036
54.40000000 578.70106880 0.88304036
54.50000000 578.70106880 0.88304036
54.60000000 578.70106880 0.88304036
54.70000000 578.70106880 0.88304036
54.80000000 578.70106880 0.88304036
54.90000000 578.70106880 0.88304036
55.00000000 594.98537984 0.90788860
55.10000000 594.98537984 0.90788860
55.20000000 594.98537984 0.90788860
55.30000000 594.98537984 0.90788860
55.40000000 594.98537984 0.90788860
55.50000000 594.98537984 0.90788860
55.60000000 594.98537984 0.90788860
55.70000000 594.98537984 0.90788860
55.80000000 601.21565120 0.91739537
55.90000000 601.21565120 0.91739537
56.00000000 601.24323136 0.91743746
56.10000000 601.24323136 0.91743746
56.20000000 601.24323136 0.91743746
56.30000000 601.24724064 0.91744357
56.40000000 601.24810232 0.91744489
56.50000000 601.24810232 0.91744489
56.60000000 601.24810232 0.91744489
56.70000000 601.24810232 0.91744489
56.80000000 601.24810232 0.91744489
56.90000000 601.24810232 0.91744489
57.00000000 601.24810232 0.91744489
57.10000000 601.24810232 0.91744489
57.20000000 601.24810232 0.91744489
57.30000000 601.24810232 0.91744489
57.40000000 601.24810232 0.91744489
57.50000000 601.24810232 0.91744489
57.60000000 601.24810232 0.91744489
57.70000000 601.24810232 0.91744489
57.80000000 601.24810232 0.91744489
57.90000000 601.24810232 0.91744489
58.00000000 601.24810232 0.91744489
58.10000000 601.24810232 0.91744489
58.20000000 601.24810232 0.91744489
58.30000000 601.24810232 0.91744489
58.40000000 601.24810232 0.91744489
58.50000000 601.24810232 0.91744489
58.60000000 601.24810232 0.91744489
58.70000000 601.24810232 0.91744489
58.80000000 601.24810232 0.91744489
58.90000000 601.24810232 0.91744489
59.00000000 601.24810232 0.91744489
59.10000000 601.24810232 0.91744489
59.20000000 601.24810232 0.91744489
59.30000000 601.24810232 0.91744489
59.40000000 601.24810232 0.91744489
59.50000000 601.24810232 0.91744489
59.60000000 601.24810232 0.91744489
59.70000000 601.24810232 0.91744489
59.80000000 601.24810232 0.91744489
59.90000000 601.24810232 0.91744489
60.00000000 601.24810232 0.91744489
60.10000000 601.24810232 0.91744489
60.20000000 601.24810232 0.91744489
60.30000000 601.24810232 0.91744489
60.40000000 601.24810232 0.91744489
60.50000000 601.24810232 0.91744489
60.60000000 601.24810232 0.91744489
60.70000000 601.24810232 0.91744489
60.80000000 601.24810232 0.91744489
60.90000000 601.24810232 0.91744489
61.00000000 601.24810232 0.91744489
61.10000000 601.24810232 0.91744489
61.20000000 601.24810232 0.91744489
61.30000000 601.24810232 0.91744489
61.40000000 601.24810232 0.91744489
61.50000000 601.24810232 0.91744489
61.60000000 601.24810232 0.91744489
61.70000000 601.24810232 0.91744489
61.80000000 601.24810232 0.91744489
61.90000000 601.24810232 0.91744489
62.00000000 601.24810232 0.91744489
62.10000000 601.24810232 0.91744489
62.20000000 601.24810232 0.91744489
62.30000000 601.24810232 0.91744489
62.40000000 601.24810232 0.91744489
62.50000000 601.24810232 0.91744489
62.60000000 601.24810232 0.91744489
62.70000000 601.24810232 0.91744489
62.80000000 601.24810232 0.91744489
62.90000000 601.24810232 0.91744489
63.00000000 601.24810232 0.91744489
63.10000000 601.24810232 0.91744489
63.20000000 601.24810232 0.91744489
63.30000000 601.24810232 0.91744489
63.40000000 601.24810232 0.91744489
63.50000000 601.24810232 0.91744489
63.60000000 601.24810232 0.91744489
63.70000000 601.24810232 0.91744489
63.80000000 601.24810232 0.91744489
63.90000000 601.30904824 0.91753789
64.00000000 601.30904824 0.91753789
64.10000000 601.30904824 0.91753789
64.20000000 601.30904824 0.91753789
64.30000000 601.30904824 0.91753789
64.40000000 601.30904824 0.91753789
64.50000000 601.30904824 0.91753789
64.60000000 601.30904824 0.91753789
64.70000000 601.30904824 0.91753789
64.80000000 601.30904824 0.91753789
64.90000000 601.30904824 0.91753789
65.00000000 601.30904824 0.91753789
65.10000000 601.30904824 0.91753789
65.20000000 601.30904824 0.91753789
65.30000000 601.30904824 0.91753789
65.40000000 601.30904824 0.91753789
65.50000000 601.30904824 0.91753789
65.60000000 601.30904824 0.91753789
65.70000000 601.30904824 0.91753789
65.80000000 601.30904824 0.91753789
65.90000000 601.30904824 0.91753789
66.00000000 601.30904824 0.91753789
66.10000000 601.65080304 0.91805937
66.20000000 601.65080304 0.91805937
66.30000000 601.65080304 0.91805937
66.40000000 601.65080304 0.91805937
66.50000000 601.65080304 0.91805937
66.60000000 601.65080304 0.91805937
66.70000000 601.65256832 0.91806206
66.80000000 601.65256832 0.91806206
66.90000000 601.65256832 0.91806206
67.00000000 601.65256832 0.91806206
67.10000000 601.65256832 0.91806206
67.20000000 601.65256832 0.91806206
67.30000000 601.65256832 0.91806206
67.40000000 601.65256832 0.91806206
67.50000000 601.65256832 0.91806206
67.60000000 601.66404384 0.91807957
67.70000000 601.66404384 0.91807957
67.80000000 601.66404384 0.91807957
67.90000000 601.66404384 0.91807957
68.00000000 601.66404384 0.91807957
68.10000000 601.66404384 0.91807957
68.20000000 601.66404384 0.91807957
68.30000000 601.66404384 0.91807957
68.40000000 601.66404384 0.91807957
68.50000000 601.66404384 0.91807957
68.60000000 601.66404384 0.91807957
68.70000000 601.67229168 0.91809216
68.80000000 601.67229168 0.91809216
68.90000000 601.67229168 0.91809216
69.00000000 601.67229168 0.91809216
69.10000000 601.67229168 0.91809216
69.20000000 601.67229168 0.91809216
69.30000000 601.67229168 0.91809216
69.40000000 601.67323592 0.91809360
69.50000000 601.67323592 0.91809360
69.60000000 601.67323592 0.91809360
69.70000000 601.67323592 0.91809360
69.80000000 601.67323592 0.91809360
69.90000000 601.67323592 0.91809360
70.00000000 601.67323592 0.91809360
70.10000000 601.67323592 0.91809360
70.20000000 601.67323592 0.91809360
70.30000000 601.67323592 0.91809360
70.40000000 601.67323592 0.91809360
70.50000000 601.67323592 0.91809360
70.60000000 601.67323592 0.91809360
70.70000000 601.67847816 0.91810160
70.80000000 601.67847816 0.91810160
70.90000000 601.67847816 0.91810160
71.00000000 601.67847816 0.91810160
71.10000000 601.67847816 0.91810160
71.20000000 601.67847816 0.91810160
71.30000000 601.75512752 0.91821856
71.40000000 601.75512752 0.91821856
71.50000000 601.75512752 0.91821856
71.60000000 601.75512752 0.91821856
71.70000000 601.75512752 0.91821856
71.80000000 601.75512752 0.91821856
71.90000000 601.75512752 0.91821856
72.00000000 601.75512752 0.91821856
72.10000000 601.75512752 0.91821856
72.20000000 601.75512752 0.91821856
72.30000000 601.75512752 0.91821856
72.40000000 601.75512752 0.91821856
72.50000000 601.75512752 0.91821856
72.60000000 601.75512752 0.91821856
72.70000000 601.75512752 0.91821856
72.80000000 601.75512752 0.91821856
72.90000000 601.75512752 0.91821856
73.00000000 601.75512752 0.91821856
73.10000000 605.75495008 0.92432189
73.20000000 605.75495008 0.92432189
73.30000000 605.75495008 0.92432189
73.40000000 605.76037072 0.92433016
73.50000000 605.76037072 0.92433016
73.60000000 605.76037072 0.92433016
73.70000000 605.76037072 0.92433016
73.80000000 605.76037072 0.92433016
73.90000000 621.75947888 0.94874321
74.00000000 621.75947888 0.94874321
74.10000000 621.75947888 0.94874321
74.20000000 621.75947888 0.94874321
74.30000000 621.75947888 0.94874321
74.40000000 621.75947888 0.94874321
74.50000000 621.75947888 0.94874321
74.60000000 621.75947888 0.94874321
74.70000000 621.75947888 0.94874321
74.80000000 621.75947888 0.94874321
74.90000000 629.75890424 0.96094954
75.00000000 629.78642040 0.96099153
75.10000000 629.78642040 0.96099153
75.20000000 629.78642040 0.96099153
75.30000000 629.78642040 0.96099153
75.40000000 629.78642040 0.96099153
75.50000000 629.78642040 0.96099153
75.60000000 629.78642040 0.96099153
75.70000000 629.78642040 0.96099153
75.80000000 629.78642040 0.96099153
75.90000000 629.78718476 0.96099269
76.00000000 629.78718476 0.96099269
76.10000000 629.78718476 0.96099269
76.20000000 629.78718476 0.96099269
76.30000000 629.78718476 0.96099269
76.40000000 629.78718476 0.96099269
76.50000000 629.78718476 0.96099269
76.60000000 629.78718476 0.96099269
76.70000000 629.78718476 0.96099269
76.80000000 629.78718476 0.96099269
76.90000000 637.78612420 0.97319828
77.00000000 637.78612420 0.97319828
77.10000000 637.78612420 0.97319828
77.20000000 637.78612420 0.97319828
77.30000000 637.78612420 0.97319828
77.40000000 639.14318116 0.97526902
77.50000000 639.14318116 0.97526902
77.60000000 639.14318116 0.97526902
77.70000000 639.14318116 0.97526902
77.80000000 639.14318116 0.97526902
77.90000000 639.14318116 0.97526902
78.00000000 647.15394252 0.98749264
78.10000000 647.15394252 0.98749264
78.20000000 647.15394252 0.98749264
78.30000000 647.15394252 0.98749264
78.40000000 647.15394252 0.98749264
78.50000000 647.15394252 0.98749264
78.60000000 647.15394252 0.98749264
78.70000000 647.15394252 0.98749264
78.80000000 647.15394252 0.98749264
78.90000000 647.15394252 0.98749264
79.00000000 647.15394252 0.98749264
79.10000000 647.15394252 0.98749264
79.20000000 647.15394252 0.98749264
79.30000000 647.15394252 0.98749264
79.40000000 647.15394252 0.98749264
79.50000000 647.15394252 0.98749264
79.60000000 647.15394252 0.98749264
79.70000000 647.15394252 0.98749264
79.80000000 647.15394252 0.98749264
79.90000000 647.15394252 0.98749264
80.00000000 647.15394252 0.98749264
80.10000000 647.15394252 0.98749264
80.20000000 647.15394252 0.98749264
80.30000000 647.15394252 0.98749264
80.40000000 647.15394252 0.98749264
80.50000000 647.15394252 0.98749264
80.60000000 647.15394252 0.98749264
80.70000000 647.15394252 0.98749264
80.80000000 647.15394252 0.98749264
80.90000000 647.15394252 0.98749264
81.00000000 647.15394252 0.98749264
81.10000000 647.15394252 0.98749264
81.20000000 647.15394252 0.98749264
81.30000000 647.15394252 0.98749264
81.40000000 647.15394252 0.98749264
81.50000000 647.15394252 0.98749264
81.60000000 647.15394252 0.98749264
81.70000000 647.15394252 0.98749264
81.80000000 647.15394252 0.98749264
81.90000000 647.15394252 0.98749264
82.00000000 647.15394252 0.98749264
82.10000000 647.15394252 0.98749264
82.20000000 647.15394252 0.98749264
82.30000000 647.15394252 0.98749264
82.40000000 647.15394252 0.98749264
82.50000000 647.15394252 0.98749264
82.60000000 647.15394252 0.98749264
82.70000000 647.15394252 0.98749264
82.80000000 647.15394252 0.98749264
82.90000000 647.15748412 0.98749805
83.00000000 647.15748412 0.98749805
83.10000000 647.15748412 0.98749805
83.20000000 647.15748412 0.98749805
83.30000000 647.15748412 0.98749805
83.40000000 647.15748412 0.98749805
83.50000000 647.15748412 0.98749805
83.60000000 647.15748412 0.98749805
83.70000000 647.15748412 0.98749805
83.80000000 647.15748412 0.98749805
83.90000000 647.15748412 0.98749805
84.00000000 647.15748412 0.98749805
84.10000000 647.15748412 0.98749805
84.20000000 647.15748412 0.98749805
84.30000000 655.11199876 0.99963585
84.40000000 655.11199876 0.99963585
84.50000000 655.11199876 0.99963585
84.60000000 655.11199876 0.99963585
84.70000000 655.11199876 0.99963585
84.80000000 655.11199876 0.99963585
84.90000000 655.11199876 0.99963585
85.00000000 655.11199876 0.99963585
85.10000000 655.11199876 0.99963585
85.20000000 655.11199876 0.99963585
85.30000000 655.11199876 0.99963585
85.40000000 655.11199876 0.99963585
85.50000000 655.11199876 0.99963585
85.60000000 655.11199876 0.99963585
85.70000000 655.11199876 0.99963585
85.80000000 655.11199876 0.99963585
85.90000000 655.11199876 0.99963585
86.00000000 655.11199876 0.99963585
86.10000000 655.11199876 0.99963585
86.20000000 655.11199876 0.99963585
86.30000000 655.11199876 0.99963585
86.40000000 655.11199876 0.99963585
86.50000000 655.11199876 0.99963585
86.60000000 655.31692516 0.99994854
86.70000000 655.31692516 0.99994854
86.80000000 655.31692516 0.99994854
86.90000000 655.31692516 0.99994854
87.00000000 655.31692516 0.99994854
87.10000000 655.31692516 0.99994854
87.20000000 655.31692516 0.99994854
87.30000000 655.31692516 0.99994854
87.40000000 655.31692516 0.99994854
87.50000000 655.31692516 0.99994854
87.60000000 655.31692516 0.99994854
87.70000000 655.31692516 0.99994854
87.80000000 655.31692516 0.99994854
87.90000000 655.31692516 0.99994854
88.00000000 655.31692516 0.99994854
88.10000000 655.31692516 0.99994854
88.20000000 655.31692516 0.99994854
88.30000000 655.31692516 0.99994854
88.40000000 655.31692516 0.99994854
88.50000000 655.31692516 0.99994854
88.60000000 655.31870020 0.99995125
88.70000000 655.31870020 0.99995125
88.80000000 655.31870020 0.99995125
88.90000000 655.31870020 0.99995125
89.00000000 655.31870020 0.99995125
89.10000000 655.31870020 0.99995125
89.20000000 655.34806668 0.99999606
89.30000000 655.34806668 0.99999606
89.40000000 655.34806668 0.99999606
89.50000000 655.34806668 0.99999606
89.60000000 655.34806668 0.99999606
89.70000000 655.35064764 1.00000000
89.80000000 655.35064764 1.00000000
89.90000000 655.35064764 1.00000000
90.00000000 655.35064764 1.00000000
