# Theta (deg), Enclosed Intensity, Normalized Enclosed Intensity
0.00000000 0.00000000 0.00000000
0.10000000 35.27931420 0.05502393
0.20000000 35.27931420 0.05502393
0.30000000 42.80445620 0.06676063
0.40000000 42.80445620 0.06676063
0.50000000 42.80445620 0.06676063
0.60000000 58.49357404 0.09123041
0.70000000 66.37275884 0.10351930
0.80000000 85.86726316 0.13392421
0.90000000 85.86726316 0.13392421
1.00000000 91.75179116 0.14310211
1.10000000 91.75179116 0.14310211
1.20000000 91.75179116 0.14310211
1.30000000 91.75179116 0.14310211
1.40000000 99.03651300 0.15446383
1.50000000 106.90076292 0.16672943
1.60000000 114.64701620 0.17881100
1.70000000 119.35073796 0.18614723
1.80000000 123.28562944 0.19228435
1.90000000 130.10689728 0.20292324
2.00000000 137.98023152 0.21520301
2.10000000 137.98023152 0.21520301
2.20000000 163.52938364 0.25505114
2.30000000 163.52938364 0.25505114
2.40000000 163.52938364 0.25505114
2.50000000 174.72398948 0.27251098
2.60000000 174.72398948 0.27251098
2.70000000 174.72398948 0.27251098
2.80000000 182.53574476 0.28469471
2.90000000 182.53574476 0.28469471
3.00000000 182.53574476 0.28469471
3.10000000 182.53574476 0.28469471
3.20000000 190.36425644 0.29690457
3.30000000 190.36425644 0.29690457
3.40000000 190.36425644 0.29690457
3.50000000 190.36425644 0.29690457
3.60000000 190.36425644 0.29690457
3.70000000 198.21328628 0.30914643
3.80000000 198.21328628 0.30914643
3.90000000 213.92457492 0.33365078
4.00000000 213.92457492 0.33365078
4.10000000 217.85497860 0.33978090
4.20000000 217.85497860 0.33978090
4.30000000 224.71337452 0.35047770
4.40000000 224.71337452 0.35047770
4.50000000 224.71337452 0.35047770
4.60000000 224.71337452 0.35047770
4.70000000 232.40461012 0.36247346
4.80000000 232.40461012 0.36247346
4.90000000 232.40461012 0.36247346
5.00000000 239.04607916 0.37283193
5.10000000 239.04607916 0.37283193
5.20000000 246.77322332 0.38488369
5.30000000 246.77322332 0.38488369
5.40000000 253.86442716 0.39594359
5.50000000 253.86442716 0.39594359
5.60000000 261.61868828 0.40803765
5.70000000 261.61868828 0.40803765
5.80000000 261.61868828 0.40803765
5.90000000 261.61868828 0.40803765
6.00000000 277.16937308 0.43229151
6.10000000 287.91576156 0.44905229
6.20000000 296.06119916 0.46175644
6.30000000 306.93798836 0.47872060
6.40000000 306.93798836 0.47872060
6.50000000 314.74373436 0.49089495
6.60000000 314.74373436 0.49089495
6.70000000 314.74373436 0.49089495
6.80000000 314.74373436 0.49089495
6.90000000 314.74373436 0.49089495
7.00000000 314.74373436 0.49089495
7.10000000 329.47703244 0.51387397
7.20000000 329.47703244 0.51387397
7.30000000 329.47703244 0.51387397
7.40000000 329.47703244 0.51387397
7.50000000 329.47703244 0.51387397
7.60000000 329.47703244 0.51387397
7.70000000 329.47703244 0.51387397
7.80000000 329.47703244 0.51387397
7.90000000 329.47703244 0.51387397
8.00000000 329.47703244 0.51387397
8.10000000 329.47703244 0.51387397
8.20000000 329.47703244 0.51387397
8.30000000 329.47703244 0.51387397
8.40000000 329.47703244 0.51387397
8.50000000 335.47366228 0.52322670
8.60000000 335.47366228 0.52322670
8.70000000 335.47366228 0.52322670
8.80000000 335.47366228 0.52322670
8.90000000 335.47366228 0.52322670
9.00000000 335.47366228 0.52322670
9.10000000 335.47366228 0.52322670
9.20000000 335.47366228 0.52322670
9.30000000 350.70582228 0.54698378
9.40000000 350.70582228 0.54698378
9.50000000 350.70582228 0.54698378
9.60000000 350.70582228 0.54698378
9.70000000 350.70582228 0.54698378
9.80000000 360.24453864 0.56186099
9.90000000 360.24453864 0.56186099
10.00000000 367.92539784 0.57384056
10.10000000 367.92539784 0.57384056
10.20000000 367.92539784 0.57384056
10.30000000 375.63116400 0.58585897
10.40000000 375.63116400 0.58585897
10.50000000 375.63116400 0.58585897
10.60000000 375.63116400 0.58585897
10.70000000 375.63116400 0.58585897
10.80000000 375.63116400 0.58585897
10.90000000 375.63116400 0.58585897
11.00000000 375.63116400 0.58585897
11.10000000 375.63116400 0.58585897
11.20000000 375.63116400 0.58585897
11.30000000 375.63116400 0.58585897
11.40000000 375.63116400 0.58585897
11.50000000 375.63116400 0.58585897
11.60000000 375.63116400 0.58585897
11.70000000 378.41195776 0.59019608
11.80000000 385.23883016 0.60084372
11.90000000 385.23883016 0.60084372
12.00000000 385.23883016 0.60084372
12.10000000 385.23883016 0.60084372
12.20000000 385.23883016 0.60084372
12.30000000 385.23883016 0.60084372
12.40000000 385.23883016 0.60084372
12.50000000 385.23883016 0.60084372
12.60000000 392.22343640 0.61173737
12.70000000 392.22343640 0.61173737
12.80000000 392.22343640 0.61173737
12.90000000 392.22343640 0.61173737
13.00000000 392.22343640 0.61173737
13.10000000 392.22343640 0.61173737
13.20000000 392.22343640 0.61173737
13.30000000 392.22343640 0.61173737
13.40000000 392.22343640 0.61173737
13.50000000 392.22343640 0.61173737
13.60000000 392.22343640 0.61173737
13.70000000 392.22343640 0.61173737
13.80000000 392.22343640 0.61173737
13.90000000 399.43672976 0.62298769
14.00000000 399.43672976 0.62298769
14.10000000 399.43672976 0.62298769
14.20000000 399.43672976 0.62298769
14.30000000 399.43672976 0.62298769
14.40000000 417.89040336 0.65176925
14.50000000 417.89040336 0.65176925
14.60000000 417.89040336 0.65176925
14.70000000 417.89040336 0.65176925
14.80000000 417.89040336 0.65176925
14.90000000 425.25969736 0.66326289
15.00000000 425.25969736 0.66326289
15.10000000 425.45351784 0.66356518
15.20000000 425.52161128 0.66367139
15.30000000 432.95117136 0.67525901
15.40000000 432.95117136 0.67525901
15.50000000 432.95117136 0.67525901
15.60000000 432.99955504 0.67533448
15.70000000 432.99955504 0.67533448
15.80000000 432.99955504 0.67533448
15.90000000 432.99955504 0.67533448
16.00000000 432.99955504 0.67533448
16.10000000 432.99955504 0.67533448
16.20000000 433.06943616 0.67544347
16.30000000 433.06943616 0.67544347
16.40000000 433.06943616 0.67544347
16.50000000 433.06943616 0.67544347
16.60000000 433.06943616 0.67544347
16.70000000 433.06943616 0.67544347
16.80000000 433.06943616 0.67544347
16.90000000 433.08226652 0.67546348
17.00000000 433.08226652 0.67546348
17.10000000 433.08226652 0.67546348
17.20000000 433.08226652 0.67546348
17.30000000 433.08226652 0.67546348
17.40000000 433.08226652 0.67546348
17.50000000 433.08226652 0.67546348
17.60000000 433.08226652 0.67546348
17.70000000 433.08226652 0.67546348
17.80000000 433.08226652 0.67546348
17.90000000 433.08226652 0.67546348
18.00000000 433.08226652 0.67546348
18.10000000 433.08226652 0.67546348
18.20000000 433.08226652 0.67546348
18.30000000 433.08226652 0.67546348
18.40000000 433.08226652 0.67546348
18.50000000 433.08226652 0.67546348
18.60000000 433.08226652 0.67546348
18.70000000 433.08226652 0.67546348
18.80000000 433.08226652 0.67546348
18.90000000 433.08226652 0.67546348
19.00000000 433.08226652 0.67546348
19.10000000 433.08226652 0.67546348
19.20000000 438.72320852 0.68426146
19.30000000 438.72320852 0.68426146
19.40000000 438.72320852 0.68426146
19.50000000 438.72320852 0.68426146
19.60000000 438.72320852 0.68426146
19.70000000 438.72320852 0.68426146
19.80000000 438.72320852 0.68426146
19.90000000 438.72320852 0.68426146
20.00000000 438.72320852 0.68426146
20.10000000 438.72320852 0.68426146
20.20000000 444.70789948 0.69359558
20.30000000 444.70789948 0.69359558
20.40000000 444.70789948 0.69359558
20.50000000 444.78049164 0.69370880
20.60000000 444.78049164 0.69370880
20.70000000 444.78049164 0.69370880
20.80000000 444.78049164 0.69370880
20.90000000 444.78049164 0.69370880
21.00000000 444.78049164 0.69370880
21.10000000 444.78049164 0.69370880
21.20000000 444.78049164 0.69370880
21.30000000 444.78049164 0.69370880
21.40000000 444.78049164 0.69370880
21.50000000 444.78049164 0.69370880
21.60000000 444.78049164 0.69370880
21.70000000 444.78049164 0.69370880
21.80000000 444.78049164 0.69370880
21.90000000 464.22937260 0.72404255
22.00000000 464.22937260 0.72404255
22.10000000 464.22937260 0.72404255
22.20000000 464.22937260 0.72404255
22.30000000 464.22937260 0.72404255
22.40000000 464.35619244 0.72424034
22.50000000 464.35619244 0.72424034
22.60000000 464.36973732 0.72426147
22.70000000 464.36973732 0.72426147
22.80000000 464.36973732 0.72426147
22.90000000 464.36973732 0.72426147
23.00000000 464.36973732 0.72426147
23.10000000 471.19041244 0.73489944
23.20000000 471.19041244 0.73489944
23.30000000 471.19041244 0.73489944
23.40000000 471.19041244 0.73489944
23.50000000 478.14048668 0.74573923
23.60000000 478.14048668 0.74573923
23.70000000 478.14048668 0.74573923
23.80000000 478.14048668 0.74573923
23.90000000 478.14048668 0.74573923
24.00000000 478.14048668 0.74573923
24.10000000 478.14048668 0.74573923
24.20000000 478.14048668 0.74573923
24.30000000 478.48185692 0.74627165
24.40000000 478.68195524 0.74658374
24.50000000 478.68195524 0.74658374
24.60000000 478.68195524 0.74658374
24.70000000 478.68195524 0.74658374
24.80000000 478.68195524 0.74658374
24.90000000 478.68195524 0.74658374
25.00000000 478.68195524 0.74658374
25.10000000 478.68195524 0.74658374
25.20000000 478.68195524 0.74658374
25.30000000 478.68195524 0.74658374
25.40000000 478.68195524 0.74658374
25.50000000 478.68195524 0.74658374
25.60000000 478.68195524 0.74658374
25.70000000 478.68195524 0.74658374
25.80000000 478.68195524 0.74658374
25.90000000 478.68195524 0.74658374
26.00000000 478.68195524 0.74658374
26.10000000 478.68195524 0.74658374
26.20000000 478.68195524 0.74658374
26.30000000 478.68195524 0.74658374
26.40000000 478.68195524 0.74658374
26.50000000 478.68195524 0.74658374
26.60000000 478.68195524 0.74658374
26.70000000 478.68195524 0.74658374
26.80000000 478.68195524 0.74658374
26.90000000 478.68195524 0.74658374
27.00000000 478.68195524 0.74658374
27.10000000 478.68195524 0.74658374
27.20000000 478.68195524 0.74658374
27.30000000 478.68195524 0.74658374
27.40000000 478.68195524 0.74658374
27.50000000 478.68195524 0.74658374
27.60000000 478.68195524 0.74658374
27.70000000 478.68195524 0.74658374
27.80000000 478.68195524 0.74658374
27.90000000 478.68195524 0.74658374
28.00000000 478.68195524 0.74658374
28.10000000 478.68195524 0.74658374
28.20000000 478.68195524 0.74658374
28.30000000 478.68195524 0.74658374
28.40000000 478.68195524 0.74658374
28.50000000 478.68195524 0.74658374
28.60000000 478.68195524 0.74658374
28.70000000 478.68195524 0.74658374
28.80000000 478.68195524 0.74658374
28.90000000 478.68195524 0.74658374
29.00000000 478.68195524 0.74658374
29.10000000 478.68195524 0.74658374
29.20000000 478.68195524 0.74658374
29.30000000 478.68195524 0.74658374
29.40000000 478.70075700 0.74661307
29.50000000 478.76745988 0.74671710
29.60000000 478.76745988 0.74671710
29.70000000 478.76745988 0.74671710
29.80000000 478.78048796 0.74673742
29.90000000 478.78048796 0.74673742
30.00000000 478.78048796 0.74673742
30.10000000 478.78048796 0.74673742
30.20000000 478.78048796 0.74673742
30.30000000 478.78048796 0.74673742
30.40000000 478.78048796 0.74673742
30.50000000 478.88557748 0.74690132
30.60000000 478.88557748 0.74690132
30.70000000 478.88557748 0.74690132
30.80000000 478.88557748 0.74690132
30.90000000 478.88557748 0.74690132
31.00000000 478.88557748 0.74690132
31.10000000 478.90567796 0.74693267
31.20000000 478.90567796 0.74693267
31.30000000 478.90567796 0.74693267
31.40000000 478.90567796 0.74693267
31.50000000 478.90567796 0.74693267
31.60000000 478.90567796 0.74693267
31.70000000 478.90567796 0.74693267
31.80000000 478.90567796 0.74693267
31.90000000 478.90567796 0.74693267
32.00000000 478.90567796 0.74693267
32.10000000 478.90567796 0.74693267
32.20000000 478.90567796 0.74693267
32.30000000 478.90567796 0.74693267
32.40000000 478.90567796 0.74693267
32.50000000 478.90567796 0.74693267
32.60000000 478.92782436 0.74696721
32.70000000 478.94297052 0.74699084
32.80000000 478.94513564 0.74699421
32.90000000 478.94513564 0.74699421
33.00000000 478.94513564 0.74699421
33.10000000 478.94513564 0.74699421
33.20000000 478.94513564 0.74699421
33.30000000 478.94513564 0.74699421
33.40000000 478.94513564 0.74699421
33.50000000 478.94796412 0.74699863
33.60000000 478.94796412 0.74699863
33.70000000 479.04282996 0.74714658
33.80000000 479.04282996 0.74714658
33.90000000 487.25208932 0.75995028
34.00000000 487.25208932 0.75995028
34.10000000 487.25208932 0.75995028
34.20000000 487.25208932 0.75995028
34.30000000 487.25208932 0.75995028
34.40000000 487.25208932 0.75995028
34.50000000 487.25208932 0.75995028
34.60000000 487.25208932 0.75995028
34.70000000 487.33906900 0.76008594
34.80000000 487.33906900 0.76008594
34.90000000 487.33906900 0.76008594
35.00000000 487.33906900 0.76008594
35.10000000 492.16243852 0.76760879
35.20000000 492.16243852 0.76760879
35.30000000 492.16243852 0.76760879
35.40000000 492.16243852 0.76760879
35.50000000 492.16243852 0.76760879
35.60000000 492.17753908 0.76763234
35.70000000 492.17753908 0.76763234
35.80000000 492.17753908 0.76763234
35.90000000 492.17753908 0.76763234
36.00000000 497.54530892 0.77600426
36.10000000 497.74028364 0.77630836
36.20000000 497.75398668 0.77632973
36.30000000 497.75398668 0.77632973
36.40000000 497.75398668 0.77632973
36.50000000 497.75398668 0.77632973
36.60000000 497.75398668 0.77632973
36.70000000 509.33169452 0.79438708
36.80000000 509.51119612 0.79466704
36.90000000 509.51119612 0.79466704
37.00000000 509.52897636 0.79469478
37.10000000 509.52897636 0.79469478
37.20000000 512.64830004 0.79955988
37.30000000 512.67281128 0.79959811
37.40000000 512.67281128 0.79959811
37.50000000 512.67281128 0.79959811
37.60000000 512.67281128 0.79959811
37.70000000 512.67281128 0.79959811
37.80000000 512.67662080 0.79960405
37.90000000 512.67662080 0.79960405
38.00000000 512.67662080 0.79960405
38.10000000 512.67662080 0.79960405
38.20000000 512.67662080 0.79960405
38.30000000 512.67662080 0.79960405
38.40000000 512.67662080 0.79960405
38.50000000 512.67662080 0.79960405
38.60000000 512.67662080 0.79960405
38.70000000 512.67920984 0.79960809
38.80000000 512.67920984 0.79960809
38.90000000 512.67920984 0.79960809
39.00000000 512.67920984 0.79960809
39.10000000 512.68423512 0.79961592
39.20000000 512.68423512 0.79961592
39.30000000 512.71334192 0.79966132
39.40000000 512.71334192 0.79966132
39.50000000 512.71334192 0.79966132
39.60000000 512.71334192 0.79966132
39.70000000 512.71334192 0.79966132
39.80000000 512.71334192 0.79966132
39.90000000 512.71334192 0.79966132
40.00000000 513.12233184 0.80029921
40.10000000 513.12233184 0.80029921
40.20000000 513.12233184 0.80029921
40.30000000 513.12318296 0.80030054
40.40000000 513.12592432 0.80030481
40.50000000 513.12592432 0.80030481
40.60000000 513.12592432 0.80030481
40.70000000 513.12791816 0.80030792
40.80000000 513.12921080 0.80030994
40.90000000 513.12921080 0.80030994
41.00000000 513.13002696 0.80031121
41.10000000 513.13002696 0.80031121
41.20000000 513.13002696 0.80031121
41.30000000 513.13002696 0.80031121
41.40000000 513.13002696 0.80031121
41.50000000 513.13002696 0.80031121
41.60000000 513.13002696 0.80031121
41.70000000 513.13002696 0.80031121
41.80000000 513.13242408 0.80031495
41.90000000 513.13431032 0.80031789
42.00000000 513.13431032 0.80031789
42.10000000 513.13431032 0.80031789
42.20000000 513.13431032 0.80031789
42.30000000 513.13431032 0.80031789
42.40000000 513.13431032 0.80031789
42.50000000 513.13431032 0.80031789
42.60000000 513.13431032 0.80031789
42.70000000 513.13431032 0.80031789
42.80000000 513.13431032 0.80031789
42.90000000 513.13564580 0.80031997
43.00000000 513.13564580 0.80031997
43.10000000 513.13564580 0.80031997
43.20000000 513.13760932 0.80032304
43.30000000 513.13760932 0.80032304
43.40000000 513.13760932 0.80032304
43.50000000 513.13760932 0.80032304
43.60000000 513.13760932 0.80032304
43.70000000 513.13974076 0.80032636
43.80000000 513.13974076 0.80032636
43.90000000 513.13974076 0.80032636
44.00000000 513.13974076 0.80032636
44.10000000 513.13974076 0.80032636
44.20000000 513.13974076 0.80032636
44.30000000 513.13974076 0.80032636
44.40000000 513.13974076 0.80032636
44.50000000 513.13974076 0.80032636
44.60000000 513.13974076 0.80032636
44.70000000 513.13974076 0.80032636
44.80000000 513.13974076 0.80032636
44.90000000 513.13974076 0.80032636
45.00000000 513.13974076 0.80032636
45.10000000 513.13974076 0.80032636
45.20000000 513.13974076 0.80032636
45.30000000 513.13974076 0.80032636
45.40000000 513.13974076 0.80032636
45.50000000 513.13974076 0.80032636
45.60000000 513.13974076 0.80032636
45.70000000 513.13974076 0.80032636
45.80000000 513.13974076 0.80032636
45.90000000 513.13974076 0.80032636
46.00000000 513.13974076 0.80032636
46.10000000 513.13974076 0.80032636
46.20000000 513.13974076 0.80032636
46.30000000 513.13974076 0.80032636
46.40000000 513.13974076 0.80032636
46.50000000 513.13974076 0.80032636
46.60000000 513.13974076 0.80032636
46.70000000 513.13974076 0.80032636
46.80000000 513.13974076 0.80032636
46.90000000 513.13974076 0.80032636
47.00000000 513.13974076 0.80032636
47.10000000 513.13974076 0.80032636
47.20000000 513.13974076 0.80032636
47.30000000 513.13974076 0.80032636
47.40000000 513.13974076 0.80032636
47.50000000 513.13974076 0.80032636
47.60000000 513.13974076 0.80032636
47.70000000 513.13974076 0.80032636
47.80000000 513.14534900 0.80033511
47.90000000 513.14534900 0.80033511
48.00000000 513.14534900 0.80033511
48.10000000 513.14674436 0.80033728
48.20000000 513.14674436 0.80033728
48.30000000 513.14674436 0.80033728
48.40000000 513.14674436 0.80033728
48.50000000 513.14674436 0.80033728
48.60000000 513.14674436 0.80033728
48.70000000 513.14674436 0.80033728
48.80000000 513.14674436 0.80033728
48.90000000 513.14674436 0.80033728
49.00000000 513.14674436 0.80033728
49.10000000 513.14674436 0.80033728
49.20000000 513.14674436 0.80033728
49.30000000 513.14674436 0.80033728
49.40000000 513.14674436 0.80033728
49.50000000 513.14674436 0.80033728
49.60000000 513.14674436 0.80033728
49.70000000 513.14674436 0.80033728
49.80000000 513.14674436 0.80033728
49.90000000 513.14674436 0.80033728
50.00000000 513.14674436 0.80033728
50.10000000 513.14674436 0.80033728
50.20000000 513.14674436 0.80033728
50.30000000 513.14674436 0.80033728
50.40000000 513.14674436 0.80033728
50.50000000 513.14674436 0.80033728
50.60000000 513.14674436 0.80033728
50.70000000 513.14674436 0.80033728
50.80000000 513.14674436 0.80033728
50.90000000 513.14674436 0.80033728
51.00000000 513.14674436 0.80033728
51.10000000 513.14674436 0.80033728
51.20000000 513.14674436 0.80033728
51.30000000 513.14971236 0.80034191
51.40000000 513.14971236 0.80034191
51.50000000 513.14971236 0.80034191
51.60000000 513.14971236 0.80034191
51.70000000 513.14971236 0.80034191
51.80000000 513.14971236 0.80034191
51.90000000 513.14971236 0.80034191
52.00000000 513.14971236 0.80034191
52.10000000 513.14971236 0.80034191
52.20000000 513.14971236 0.80034191
52.30000000 513.14971236 0.80034191
52.40000000 513.14971236 0.80034191
52.50000000 513.14971236 0.80034191
52.60000000 513.14971236 0.80034191
52.70000000 513.16826604 0.80037085
52.80000000 513.16826604 0.80037085
52.90000000 513.16826604 0.80037085
53.00000000 513.16826604 0.80037085
53.10000000 513.16826604 0.80037085
53.20000000 513.16826604 0.80037085
53.30000000 513.16826604 0.80037085
53.40000000 513.16826604 0.80037085
53.50000000 513.16826604 0.80037085
53.60000000 513.16826604 0.80037085
53.70000000 513.16826604 0.80037085
53.80000000 513.16826604 0.80037085
53.90000000 513.16826604 0.80037085
54.00000000 513.41777188 0.80076000
54.10000000 513.41777188 0.80076000
54.20000000 513.41777188 0.80076000
54.30000000 513.41777188 0.80076000
54.40000000 513.41777188 0.80076000
54.50000000 513.41777188 0.80076000
54.60000000 513.42031684 0.80076397
54.70000000 513.42031684 0.80076397
54.80000000 513.42031684 0.80076397
54.90000000 513.42031684 0.80076397
55.00000000 513.42031684 0.80076397
55.10000000 513.42031684 0.80076397
55.20000000 513.42031684 0.80076397
55.30000000 513.42031684 0.80076397
55.40000000 513.42031684 0.80076397
55.50000000 513.42031684 0.80076397
55.60000000 513.42031684 0.80076397
55.70000000 513.42031684 0.80076397
55.80000000 513.42031684 0.80076397
55.90000000 513.43631020 0.80078891
56.00000000 513.43631020 0.80078891
56.10000000 513.43631020 0.80078891
56.20000000 513.43631020 0.80078891
56.30000000 513.43631020 0.80078891
56.40000000 513.43631020 0.80078891
56.50000000 513.43631020 0.80078891
56.60000000 513.43631020 0.80078891
56.70000000 513.43631020 0.80078891
56.80000000 513.43631020 0.80078891
56.90000000 513.43631020 0.80078891
57.00000000 513.43631020 0.80078891
57.10000000 513.43631020 0.80078891
57.20000000 513.43631020 0.80078891
57.30000000 513.43631020 0.80078891
57.40000000 513.43631020 0.80078891
57.50000000 513.43631020 0.80078891
57.60000000 513.43836716 0.80079212
57.70000000 513.43836716 0.80079212
57.80000000 513.43836716 0.80079212
57.90000000 513.43836716 0.80079212
58.00000000 513.43836716 0.80079212
58.10000000 513.43836716 0.80079212
58.20000000 513.43836716 0.80079212
58.30000000 513.43836716 0.80079212
58.40000000 513.55560492 0.80097497
58.50000000 513.55560492 0.80097497
58.60000000 513.55560492 0.80097497
58.70000000 513.55560492 0.80097497
58.80000000 513.55560492 0.80097497
58.90000000 513.55560492 0.80097497
59.00000000 513.55560492 0.80097497
59.10000000 513.55560492 0.80097497
59.20000000 513.55860044 0.80097964
59.30000000 513.55860044 0.80097964
59.40000000 513.55860044 0.80097964
59.50000000 513.56521844 0.80098996
59.60000000 513.56521844 0.80098996
59.70000000 513.56521844 0.80098996
59.80000000 513.56521844 0.80098996
59.90000000 513.56521844 0.80098996
60.00000000 513.56521844 0.80098996
60.10000000 513.56521844 0.80098996
60.20000000 513.56521844 0.80098996
60.30000000 513.56521844 0.80098996
60.40000000 513.56521844 0.80098996
60.50000000 513.56817916 0.80099458
60.60000000 513.56817916 0.80099458
60.70000000 513.56817916 0.80099458
60.80000000 513.56817916 0.80099458
60.90000000 513.56817916 0.80099458
61.00000000 513.56817916 0.80099458
61.10000000 513.56817916 0.80099458
61.20000000 513.56817916 0.80099458
61.30000000 513.56817916 0.80099458
61.40000000 513.57154076 0.80099982
61.50000000 513.57154076 0.80099982
61.60000000 513.57573252 0.80100636
61.70000000 513.57573252 0.80100636
61.80000000 513.57573252 0.80100636
61.90000000 513.57573252 0.80100636
62.00000000 513.57573252 0.80100636
62.10000000 513.57573252 0.80100636
62.20000000 513.57573252 0.80100636
62.30000000 513.57573252 0.80100636
62.40000000 513.57573252 0.80100636
62.50000000 513.57573252 0.80100636
62.60000000 513.57573252 0.80100636
62.70000000 513.57573252 0.80100636
62.80000000 513.57573252 0.80100636
62.90000000 513.57573252 0.80100636
63.00000000 513.57573252 0.80100636
63.10000000 513.57573252 0.80100636
63.20000000 513.57573252 0.80100636
63.30000000 513.57573252 0.80100636
63.40000000 513.57573252 0.80100636
63.50000000 513.57573252 0.80100636
63.60000000 513.57573252 0.80100636
63.70000000 513.57573252 0.80100636
63.80000000 513.57573252 0.80100636
63.90000000 513.57573252 0.80100636
64.00000000 513.57573252 0.80100636
64.10000000 513.57853092 0.80101073
64.20000000 513.58310708 0.80101786
64.30000000 513.58310708 0.80101786
64.40000000 513.58310708 0.80101786
64.50000000 513.58310708 0.80101786
64.60000000 513.58310708 0.80101786
64.70000000 513.58310708 0.80101786
64.80000000 513.58310708 0.80101786
64.90000000 513.58310708 0.80101786
65.00000000 513.58310708 0.80101786
65.10000000 521.58295636 0.81349495
65.20000000 521.58295636 0.81349495
65.30000000 521.58295636 0.81349495
65.40000000 521.58295636 0.81349495
65.50000000 521.60929156 0.81353603
65.60000000 521.61025284 0.81353753
65.70000000 529.61008412 0.82601459
65.80000000 529.61008412 0.82601459
65.90000000 529.61008412 0.82601459
66.00000000 529.61008412 0.82601459
66.10000000 529.61008412 0.82601459
66.20000000 529.61008412 0.82601459
66.30000000 529.61008412 0.82601459
66.40000000 537.60989428 0.83849162
66.50000000 537.60989428 0.83849162
66.60000000 537.60989428 0.83849162
66.70000000 537.60989428 0.83849162
66.80000000 537.60989428 0.83849162
66.90000000 537.60989428 0.83849162
67.00000000 545.60967940 0.85096860
67.10000000 545.60967940 0.85096860
67.20000000 545.61328484 0.85097423
67.30000000 545.61328484 0.85097423
67.40000000 545.61724052 0.85098040
67.50000000 545.61724052 0.85098040
67.60000000 545.61724052 0.85098040
67.70000000 545.61724052 0.85098040
67.80000000 545.64109132 0.85101760
67.90000000 545.64109132 0.85101760
68.00000000 545.64109132 0.85101760
68.10000000 545.64109132 0.85101760
68.20000000 545.64109132 0.85101760
68.30000000 545.64109132 0.85101760
68.40000000 545.64109132 0.85101760
68.50000000 545.64109132 0.85101760
68.60000000 545.64109132 0.85101760
68.70000000 545.64245548 0.85101972
68.80000000 545.64245548 0.85101972
68.90000000 545.64245548 0.85101972
69.00000000 545.64245548 0.85101972
69.10000000 553.64213084 0.86349654
69.20000000 553.64213084 0.86349654
69.30000000 553.64213084 0.86349654
69.40000000 556.54434628 0.86802303
69.50000000 556.54434628 0.86802303
69.60000000 556.54434628 0.86802303
69.70000000 556.54434628 0.86802303
69.80000000 580.54321012 0.90545323
69.90000000 580.54321012 0.90545323
70.00000000 580.54321012 0.90545323
70.10000000 580.54321012 0.90545323
70.20000000 580.54321012 0.90545323
70.30000000 580.54321012 0.90545323
70.40000000 580.55898204 0.90547783
70.50000000 580.55898204 0.90547783
70.60000000 580.55898204 0.90547783
70.70000000 580.55898204 0.90547783
70.80000000 580.55898204 0.90547783
70.90000000 580.56095644 0.90548091
71.00000000 580.56095644 0.90548091
71.10000000 580.56352972 0.90548492
71.20000000 580.56352972 0.90548492
71.30000000 588.56299708 0.91796141
71.40000000 588.56299708 0.91796141
71.50000000 588.56299708 0.91796141
71.60000000 588.56299708 0.91796141
71.70000000 588.56299708 0.91796141
71.80000000 588.56299708 0.91796141
71.90000000 588.56299708 0.91796141
72.00000000 588.56299708 0.91796141
72.10000000 588.56299708 0.91796141
72.20000000 588.56299708 0.91796141
72.30000000 588.56299708 0.91796141
72.40000000 588.56299708 0.91796141
72.50000000 588.56299708 0.91796141
72.60000000 588.56299708 0.91796141
72.70000000 588.56299708 0.91796141
72.80000000 588.56696852 0.91796761
72.90000000 592.56657208 0.92420565
73.00000000 592.56657208 0.92420565
73.10000000 592.56657208 0.92420565
73.20000000 592.56657208 0.92420565
73.30000000 592.56657208 0.92420565
73.40000000 592.56657208 0.92420565
73.50000000 592.56772552 0.92420745
73.60000000 592.56772552 0.92420745
73.70000000 592.56772552 0.92420745
73.80000000 608.56573464 0.94915899
73.90000000 608.56573464 0.94915899
74.00000000 608.56573464 0.94915899
74.10000000 608.56573464 0.94915899
74.20000000 608.56573464 0.94915899
74.30000000 608.57130760 0.94916768
74.40000000 608.57130760 0.94916768
74.50000000 608.57130760 0.94916768
74.60000000 608.57130760 0.94916768
74.70000000 616.57002624 0.96164301
74.80000000 616.57002624 0.96164301
74.90000000 616.59293328 0.96167874
75.00000000 616.59293328 0.96167874
75.10000000 616.59293328 0.96167874
75.20000000 616.59293328 0.96167874
75.30000000 616.59293328 0.96167874
75.40000000 616.59293328 0.96167874
75.50000000 616.59293328 0.96167874
75.60000000 616.59293328 0.96167874
75.70000000 616.59293328 0.96167874
75.80000000 616.59293328 0.96167874
75.90000000 616.59293328 0.96167874
76.00000000 616.59293328 0.96167874
76.10000000 616.59293328 0.96167874
76.20000000 616.59293328 0.96167874
76.30000000 616.59293328 0.96167874
76.40000000 616.59293328 0.96167874
76.50000000 616.59293328 0.96167874
76.60000000 616.59293328 0.96167874
76.70000000 624.59057544 0.97415238
76.80000000 624.59057544 0.97415238
76.90000000 624.59057544 0.97415238
77.00000000 624.59057544 0.97415238
77.10000000 624.59057544 0.97415238
77.20000000 624.59057544 0.97415238
77.30000000 624.59057544 0.97415238
77.40000000 624.59057544 0.97415238
77.50000000 624.59057544 0.97415238
77.60000000 624.59057544 0.97415238
77.70000000 624.59057544 0.97415238
77.80000000 632.58711952 0.98662432
77.90000000 632.58711952 0.98662432
78.00000000 632.58711952 0.98662432
78.10000000 632.58711952 0.98662432
78.20000000 632.58711952 0.98662432
78.30000000 632.58711952 0.98662432
78.40000000 632.58711952 0.98662432
78.50000000 632.58711952 0.98662432
78.60000000 632.58711952 0.98662432
78.70000000 632.58711952 0.98662432
78.80000000 632.58711952 0.98662432
78.90000000 632.59120040 0.98663068
79.00000000 632.59120040 0.98663068
79.10000000 632.59120040 0.98663068
79.20000000 632.59120040 0.98663068
79.30000000 632.59120040 0.98663068
79.40000000 632.59120040 0.98663068
79.50000000 632.59120040 0.98663068
79.60000000 632.59120040 0.98663068
79.70000000 632.59120040 0.98663068
79.80000000 632.59120040 0.98663068
79.90000000 632.59120040 0.98663068
80.00000000 632.59120040 0.98663068
80.10000000 632.59120040 0.98663068
80.20000000 632.59120040 0.98663068
80.30000000 632.59120040 0.98663068
80.40000000 632.59120040 0.98663068
80.50000000 632.59120040 0.98663068
80.60000000 632.59120040 0.98663068
80.70000000 632.59426912 0.98663547
80.80000000 632.59426912 0.98663547
80.90000000 632.59426912 0.98663547
81.00000000 632.59426912 0.98663547
81.10000000 632.59426912 0.98663547
81.20000000 632.59426912 0.98663547
81.30000000 632.59426912 0.98663547
81.40000000 632.59426912 0.98663547
81.50000000 632.59426912 0.98663547
81.60000000 632.59426912 0.98663547
81.70000000 632.59426912 0.98663547
81.80000000 632.59426912 0.98663547
81.90000000 632.59426912 0.98663547
82.00000000 632.59426912 0.98663547
82.10000000 632.59426912 0.98663547
82.20000000 632.59426912 0.98663547
82.30000000 632.59426912 0.98663547
82.40000000 632.59426912 0.98663547
82.50000000 632.59426912 0.98663547
82.60000000 632.59426912 0.98663547
82.70000000 632.59426912 0.98663547
82.80000000 632.59426912 0.98663547
82.90000000 632.59426912 0.98663547
83.00000000 632.59426912 0.98663547
83.10000000 632.97202448 0.98722464
83.20000000 632.97202448 0.98722464
83.30000000 632.97202448 0.98722464
83.40000000 632.97202448 0.98722464
83.50000000 632.97202448 0.98722464
83.60000000 632.97202448 0.98722464
83.70000000 632.97202448 0.98722464
83.80000000 632.97202448 0.98722464
83.90000000 640.87695808 0.99955369
84.00000000 640.87695808 0.99955369
84.10000000 640.88058896 0.99955936
84.20000000 640.88058896 0.99955936
84.30000000 640.88058896 0.99955936
84.40000000 640.88058896 0.99955936
84.50000000 640.88058896 0.99955936
84.60000000 640.88058896 0.99955936
84.70000000 640.88058896 0.99955936
84.80000000 640.88058896 0.99955936
84.90000000 640.88058896 0.99955936
85.00000000 640.88058896 0.99955936
85.10000000 640.88058896 0.99955936
85.20000000 640.88058896 0.99955936
85.30000000 640.88058896 0.99955936
85.40000000 640.88058896 0.99955936
85.50000000 640.88058896 0.99955936
85.60000000 640.99352696 0.99973550
85.70000000 640.99352696 0.99973550
85.80000000 640.99352696 0.99973550
85.90000000 640.99352696 0.99973550
86.00000000 640.99352696 0.99973550
86.10000000 640.99352696 0.99973550
86.20000000 640.99352696 0.99973550
86.30000000 640.99352696 0.99973550
86.40000000 640.99352696 0.99973550
86.50000000 640.99352696 0.99973550
86.60000000 640.99352696 0.99973550
86.70000000 640.99352696 0.99973550
86.80000000 640.99352696 0.99973550
86.90000000 640.99352696 0.99973550
87.00000000 640.99352696 0.99973550
87.10000000 640.99352696 0.99973550
87.20000000 640.99352696 0.99973550
87.30000000 640.99352696 0.99973550
87.40000000 640.99352696 0.99973550
87.50000000 640.99352696 0.99973550
87.60000000 640.99352696 0.99973550
87.70000000 641.06563624 0.99984797
87.80000000 641.06563624 0.99984797
87.90000000 641.06563624 0.99984797
88.00000000 641.06563624 0.99984797
88.10000000 641.06563624 0.99984797
88.20000000 641.06563624 0.99984797
88.30000000 641.06563624 0.99984797
88.40000000 641.06563624 0.99984797
88.50000000 641.06563624 0.99984797
88.60000000 641.06563624 0.99984797
88.70000000 641.06654040 0.99984938
88.80000000 641.06654040 0.99984938
88.90000000 641.06654040 0.99984938
89.00000000 641.06654040 0.99984938
89.10000000 641.06654040 0.99984938
89.20000000 641.06654040 0.99984938
89.30000000 641.06654040 0.99984938
89.40000000 641.06654040 0.99984938
89.50000000 641.06654040 0.99984938
89.60000000 641.06654040 0.99984938
89.70000000 641.16311304 1.00000000
89.80000000 641.16311304 1.00000000
89.90000000 641.16311304 1.00000000
90.00000000 641.16311304 1.00000000
