# Theta (deg), Enclosed Intensity, Normalized Enclosed Intensity
0.00000000 0.00000000 0.00000000
0.10000000 12.55160544 0.02078898
0.20000000 12.55160544 0.02078898
0.30000000 15.20506184 0.02518385
0.40000000 15.20506184 0.02518385
0.50000000 15.20506184 0.02518385
0.60000000 15.20506184 0.02518385
0.70000000 19.08129320 0.03160398
0.80000000 19.08129320 0.03160398
0.90000000 26.41026856 0.04374282
1.00000000 26.41026856 0.04374282
1.10000000 26.41026856 0.04374282
1.20000000 26.41026856 0.04374282
1.30000000 26.41026856 0.04374282
1.40000000 33.69253592 0.05580429
1.50000000 33.69253592 0.05580429
1.60000000 33.69253592 0.05580429
1.70000000 33.69253592 0.05580429
1.80000000 41.44495840 0.06864448
1.90000000 55.10224304 0.09126478
2.00000000 55.10224304 0.09126478
2.10000000 55.10224304 0.09126478
2.20000000 55.10224304 0.09126478
2.30000000 62.85387752 0.10410366
2.40000000 62.85387752 0.10410366
2.50000000 72.57437376 0.12020353
2.60000000 79.09616384 0.13100544
2.70000000 86.26501600 0.14287908
2.80000000 93.97956344 0.15565653
2.90000000 97.85171640 0.16206990
3.00000000 97.85171640 0.16206990
3.10000000 103.52647952 0.17146890
3.20000000 111.23373648 0.18423428
3.30000000 141.94846152 0.23510649
3.40000000 149.04781016 0.24686500
3.50000000 152.91949836 0.25327760
3.60000000 152.91949836 0.25327760
3.70000000 152.91949836 0.25327760
3.80000000 152.91949836 0.25327760
3.90000000 160.46207196 0.26577022
4.00000000 175.89404164 0.29132989
4.10000000 183.62566340 0.30413563
4.20000000 183.62566340 0.30413563
4.30000000 183.62566340 0.30413563
4.40000000 183.62566340 0.30413563
4.50000000 191.30154436 0.31684904
4.60000000 208.64673464 0.34557755
4.70000000 208.64673464 0.34557755
4.80000000 208.64673464 0.34557755
4.90000000 208.64673464 0.34557755
5.00000000 223.78572808 0.37065197
5.10000000 223.78572808 0.37065197
5.20000000 223.78572808 0.37065197
5.30000000 223.78572808 0.37065197
5.40000000 223.78572808 0.37065197
5.50000000 223.78572808 0.37065197
5.60000000 227.60634472 0.37697998
5.70000000 242.48010392 0.40161510
5.80000000 242.48010392 0.40161510
5.90000000 250.17792032 0.41436484
6.00000000 279.94863464 0.46367350
6.10000000 282.43808936 0.46779674
6.20000000 297.67085368 0.49302647
6.30000000 297.67085368 0.49302647
6.40000000 297.67085368 0.49302647
6.50000000 297.67085368 0.49302647
6.60000000 297.67085368 0.49302647
6.70000000 297.67085368 0.49302647
6.80000000 297.67085368 0.49302647
6.90000000 297.67085368 0.49302647
7.00000000 304.34863520 0.50408675
7.10000000 304.34863520 0.50408675
7.20000000 311.67216224 0.51621657
7.30000000 311.67216224 0.51621657
7.40000000 311.67216224 0.51621657
7.50000000 311.67216224 0.51621657
7.60000000 311.67216224 0.51621657
7.70000000 320.14355208 0.53024757
7.80000000 320.14355208 0.53024757
7.90000000 320.14355208 0.53024757
8.00000000 320.14355208 0.53024757
8.10000000 340.41379816 0.56382078
8.20000000 347.96455592 0.57632695
8.30000000 347.96455592 0.57632695
8.40000000 347.96455592 0.57632695
8.50000000 347.96455592 0.57632695
8.60000000 347.96455592 0.57632695
8.70000000 355.43646720 0.58870254
8.80000000 355.43646720 0.58870254
8.90000000 355.43646720 0.58870254
9.00000000 370.49321568 0.61364074
9.10000000 370.49321568 0.61364074
9.20000000 370.49321568 0.61364074
9.30000000 370.49321568 0.61364074
9.40000000 376.80085800 0.62408796
9.50000000 376.80085800 0.62408796
9.60000000 376.80085800 0.62408796
9.70000000 376.80085800 0.62408796
9.80000000 381.03414000 0.63109947
9.90000000 381.03414000 0.63109947
10.00000000 381.03414000 0.63109947
10.10000000 381.03414000 0.63109947
10.20000000 381.03414000 0.63109947
10.30000000 395.03340656 0.65428618
10.40000000 395.03340656 0.65428618
10.50000000 395.03340656 0.65428618
10.60000000 395.03340656 0.65428618
10.70000000 395.03340656 0.65428618
10.80000000 395.03340656 0.65428618
10.90000000 395.03340656 0.65428618
11.00000000 402.29696704 0.66631668
11.10000000 402.29696704 0.66631668
11.20000000 416.69598160 0.69016548
11.30000000 416.69598160 0.69016548
11.40000000 416.89632008 0.69049730
11.50000000 416.89632008 0.69049730
11.60000000 416.89632008 0.69049730
11.70000000 416.89632008 0.69049730
11.80000000 416.89632008 0.69049730
11.90000000 416.89632008 0.69049730
12.00000000 416.89632008 0.69049730
12.10000000 420.55017880 0.69654912
12.20000000 420.55017880 0.69654912
12.30000000 420.55017880 0.69654912
12.40000000 420.55017880 0.69654912
12.50000000 426.24650464 0.70598383
12.60000000 426.24650464 0.70598383
12.70000000 426.24650464 0.70598383
12.80000000 426.24650464 0.70598383
12.90000000 426.24650464 0.70598383
13.00000000 433.12262600 0.71737262
13.10000000 433.12262600 0.71737262
13.20000000 433.12262600 0.71737262
13.30000000 433.12262600 0.71737262
13.40000000 433.12262600 0.71737262
13.50000000 433.12262600 0.71737262
13.60000000 433.12262600 0.71737262
13.70000000 433.12262600 0.71737262
13.80000000 433.71237616 0.71834941
13.90000000 433.71237616 0.71834941
14.00000000 433.71237616 0.71834941
14.10000000 434.05468864 0.71891637
14.20000000 434.05468864 0.71891637
14.30000000 434.05468864 0.71891637
14.40000000 434.05468864 0.71891637
14.50000000 439.27173408 0.72755727
14.60000000 439.27173408 0.72755727
14.70000000 439.27173408 0.72755727
14.80000000 439.27173408 0.72755727
14.90000000 439.27173408 0.72755727
15.00000000 439.27173408 0.72755727
15.10000000 439.27173408 0.72755727
15.20000000 439.27173408 0.72755727
15.30000000 439.27173408 0.72755727
15.40000000 439.27173408 0.72755727
15.50000000 439.27173408 0.72755727
15.60000000 445.40847600 0.73772143
15.70000000 445.40847600 0.73772143
15.80000000 445.40847600 0.73772143
15.90000000 445.40847600 0.73772143
16.00000000 445.40847600 0.73772143
16.10000000 445.40847600 0.73772143
16.20000000 445.40847600 0.73772143
16.30000000 445.40847600 0.73772143
16.40000000 445.59818488 0.73803564
16.50000000 445.59818488 0.73803564
16.60000000 445.59818488 0.73803564
16.70000000 445.59818488 0.73803564
16.80000000 445.59818488 0.73803564
16.90000000 445.59818488 0.73803564
17.00000000 445.59818488 0.73803564
17.10000000 445.59818488 0.73803564
17.20000000 445.59818488 0.73803564
17.30000000 445.59818488 0.73803564
17.40000000 445.59818488 0.73803564
17.50000000 445.59818488 0.73803564
17.60000000 445.59818488 0.73803564
17.70000000 445.59818488 0.73803564
17.80000000 455.95390248 0.75518762
17.90000000 455.95390248 0.75518762
18.00000000 455.95390248 0.75518762
18.10000000 455.95390248 0.75518762
18.20000000 455.95390248 0.75518762
18.30000000 455.95390248 0.75518762
18.40000000 455.95390248 0.75518762
18.50000000 455.95390248 0.75518762
18.60000000 455.95390248 0.75518762
18.70000000 455.95390248 0.75518762
18.80000000 456.69348536 0.75641257
18.90000000 456.69348536 0.75641257
19.00000000 456.69348536 0.75641257
19.10000000 456.69348536 0.75641257
19.20000000 456.69348536 0.75641257
19.30000000 456.69348536 0.75641257
19.40000000 456.69348536 0.75641257
19.50000000 456.69348536 0.75641257
19.60000000 456.69348536 0.75641257
19.70000000 456.69348536 0.75641257
19.80000000 456.69348536 0.75641257
19.90000000 456.69348536 0.75641257
20.00000000 461.85474716 0.76496107
20.10000000 461.85474716 0.76496107
20.20000000 461.85474716 0.76496107
20.30000000 461.85474716 0.76496107
20.40000000 461.85474716 0.76496107
20.50000000 465.61331468 0.77118632
20.60000000 465.61331468 0.77118632
20.70000000 465.61331468 0.77118632
20.80000000 465.86031776 0.77159542
20.90000000 465.86031776 0.77159542
21.00000000 465.88201376 0.77163136
21.10000000 465.99063952 0.77181127
21.20000000 465.99063952 0.77181127
21.30000000 465.99063952 0.77181127
21.40000000 465.99063952 0.77181127
21.50000000 465.99063952 0.77181127
21.60000000 465.99063952 0.77181127
21.70000000 465.99063952 0.77181127
21.80000000 471.08828752 0.78025441
21.90000000 471.08828752 0.78025441
22.00000000 471.08828752 0.78025441
22.10000000 471.08828752 0.78025441
22.20000000 471.08828752 0.78025441
22.30000000 471.08828752 0.78025441
22.40000000 471.08828752 0.78025441
22.50000000 471.08828752 0.78025441
22.60000000 471.08828752 0.78025441
22.70000000 471.08828752 0.78025441
22.80000000 471.08828752 0.78025441
22.90000000 471.08828752 0.78025441
23.00000000 471.08828752 0.78025441
23.10000000 471.08828752 0.78025441
23.20000000 471.08828752 0.78025441
23.30000000 471.08828752 0.78025441
23.40000000 471.08828752 0.78025441
23.50000000 471.08828752 0.78025441
23.60000000 471.08828752 0.78025441
23.70000000 471.08828752 0.78025441
23.80000000 471.08828752 0.78025441
23.90000000 471.08828752 0.78025441
24.00000000 471.80771336 0.78144598
24.10000000 471.80771336 0.78144598
24.20000000 471.80771336 0.78144598
24.30000000 471.80771336 0.78144598
24.40000000 471.80771336 0.78144598
24.50000000 471.80771336 0.78144598
24.60000000 471.80771336 0.78144598
24.70000000 471.80771336 0.78144598
24.80000000 473.43536456 0.78414183
24.90000000 473.43536456 0.78414183
25.00000000 473.43536456 0.78414183
25.10000000 473.43536456 0.78414183
25.20000000 473.43536456 0.78414183
25.30000000 473.43536456 0.78414183
25.40000000 473.43536456 0.78414183
25.50000000 473.43536456 0.78414183
25.60000000 473.43536456 0.78414183
25.70000000 473.43536456 0.78414183
25.80000000 473.43536456 0.78414183
25.90000000 473.43536456 0.78414183
26.00000000 473.43536456 0.78414183
26.10000000 473.43536456 0.78414183
26.20000000 473.43536456 0.78414183
26.30000000 473.43536456 0.78414183
26.40000000 473.43536456 0.78414183
26.50000000 473.43536456 0.78414183
26.60000000 473.43536456 0.78414183
26.70000000 473.43536456 0.78414183
26.80000000 473.43536456 0.78414183
26.90000000 473.43536456 0.78414183
27.00000000 473.43536456 0.78414183
27.10000000 473.43536456 0.78414183
27.20000000 473.43536456 0.78414183
27.30000000 473.43536456 0.78414183
27.40000000 473.43536456 0.78414183
27.50000000 473.43536456 0.78414183
27.60000000 473.43536456 0.78414183
27.70000000 473.43536456 0.78414183
27.80000000 473.43536456 0.78414183
27.90000000 473.44069560 0.78415065
28.00000000 473.44069560 0.78415065
28.10000000 473.44250800 0.78415366
28.20000000 473.44250800 0.78415366
28.30000000 473.44250800 0.78415366
28.40000000 473.44250800 0.78415366
28.50000000 473.44250800 0.78415366
28.60000000 473.44250800 0.78415366
28.70000000 473.44250800 0.78415366
28.80000000 473.44250800 0.78415366
28.90000000 473.44250800 0.78415366
29.00000000 473.44250800 0.78415366
29.10000000 473.44250800 0.78415366
29.20000000 473.44250800 0.78415366
29.30000000 473.44250800 0.78415366
29.40000000 473.44250800 0.78415366
29.50000000 473.44250800 0.78415366
29.60000000 473.44250800 0.78415366
29.70000000 473.44250800 0.78415366
29.80000000 473.44250800 0.78415366
29.90000000 473.44250800 0.78415366
30.00000000 473.44250800 0.78415366
30.10000000 473.44250800 0.78415366
30.20000000 473.44250800 0.78415366
30.30000000 473.44250800 0.78415366
30.40000000 473.47580816 0.78420881
30.50000000 473.47580816 0.78420881
30.60000000 473.47580816 0.78420881
30.70000000 473.47580816 0.78420881
30.80000000 473.47580816 0.78420881
30.90000000 473.47580816 0.78420881
31.00000000 473.47580816 0.78420881
31.10000000 473.47580816 0.78420881
31.20000000 473.47580816 0.78420881
31.30000000 473.47580816 0.78420881
31.40000000 473.47580816 0.78420881
31.50000000 473.47580816 0.78420881
31.60000000 473.47580816 0.78420881
31.70000000 473.47580816 0.78420881
31.80000000 473.47580816 0.78420881
31.90000000 473.47580816 0.78420881
32.00000000 473.47580816 0.78420881
32.10000000 473.47580816 0.78420881
32.20000000 473.47580816 0.78420881
32.30000000 473.47580816 0.78420881
32.40000000 473.47580816 0.78420881
32.50000000 473.47580816 0.78420881
32.60000000 473.47580816 0.78420881
32.70000000 473.47580816 0.78420881
32.80000000 473.47580816 0.78420881
32.90000000 473.47580816 0.78420881
33.00000000 473.47580816 0.78420881
33.10000000 473.47580816 0.78420881
33.20000000 473.47580816 0.78420881
33.30000000 473.47580816 0.78420881
33.40000000 473.47580816 0.78420881
33.50000000 473.47580816 0.78420881
33.60000000 473.47580816 0.78420881
33.70000000 473.47949808 0.78421492
33.80000000 473.47949808 0.78421492
33.90000000 473.47949808 0.78421492
34.00000000 473.47949808 0.78421492
34.10000000 473.47949808 0.78421492
34.20000000 473.47949808 0.78421492
34.30000000 473.49779240 0.78424522
34.40000000 473.49779240 0.78424522
34.50000000 473.49779240 0.78424522
34.60000000 473.49779240 0.78424522
34.70000000 473.49779240 0.78424522
34.80000000 473.49779240 0.78424522
34.90000000 473.49779240 0.78424522
35.00000000 473.49779240 0.78424522
35.10000000 473.49779240 0.78424522
35.20000000 473.49779240 0.78424522
35.30000000 473.49779240 0.78424522
35.40000000 473.56712112 0.78436005
35.50000000 473.56712112 0.78436005
35.60000000 473.56712112 0.78436005
35.70000000 473.56712112 0.78436005
35.80000000 473.56712112 0.78436005
35.90000000 473.56712112 0.78436005
36.00000000 473.56712112 0.78436005
36.10000000 473.56712112 0.78436005
36.20000000 473.56712112 0.78436005
36.30000000 473.56712112 0.78436005
36.40000000 473.56712112 0.78436005
36.50000000 473.56712112 0.78436005
36.60000000 473.56712112 0.78436005
36.70000000 473.56712112 0.78436005
36.80000000 473.56712112 0.78436005
36.90000000 473.56712112 0.78436005
37.00000000 473.56712112 0.78436005
37.10000000 473.56712112 0.78436005
37.20000000 473.63715248 0.78447604
37.30000000 473.63715248 0.78447604
37.40000000 473.63715248 0.78447604
37.50000000 473.63715248 0.78447604
37.60000000 473.63715248 0.78447604
37.70000000 473.63715248 0.78447604
37.80000000 473.63715248 0.78447604
37.90000000 473.63715248 0.78447604
38.00000000 473.63715248 0.78447604
38.10000000 473.63715248 0.78447604
38.20000000 473.63715248 0.78447604
38.30000000 473.63715248 0.78447604
38.40000000 473.63715248 0.78447604
38.50000000 473.63715248 0.78447604
38.60000000 473.63715248 0.78447604
38.70000000 473.63715248 0.78447604
38.80000000 473.63715248 0.78447604
38.90000000 473.63715248 0.78447604
39.00000000 473.63715248 0.78447604
39.10000000 473.63715248 0.78447604
39.20000000 473.64191824 0.78448394
39.30000000 473.68408744 0.78455378
39.40000000 473.68670584 0.78455812
39.50000000 473.68670584 0.78455812
39.60000000 473.68670584 0.78455812
39.70000000 473.68670584 0.78455812
39.80000000 473.68670584 0.78455812
39.90000000 473.68670584 0.78455812
40.00000000 473.68670584 0.78455812
40.10000000 473.68670584 0.78455812
40.20000000 473.68670584 0.78455812
40.30000000 473.68670584 0.78455812
40.40000000 473.68670584 0.78455812
40.50000000 473.68670584 0.78455812
40.60000000 473.68670584 0.78455812
40.70000000 473.68670584 0.78455812
40.80000000 473.68670584 0.78455812
40.90000000 473.68670584 0.78455812
41.00000000 473.68670584 0.78455812
41.10000000 473.68670584 0.78455812
41.20000000 473.69350560 0.78456938
41.30000000 473.69350560 0.78456938
41.40000000 473.69350560 0.78456938
41.50000000 473.69350560 0.78456938
41.60000000 473.69350560 0.78456938
41.70000000 473.69350560 0.78456938
41.80000000 473.69350560 0.78456938
41.90000000 473.69350560 0.78456938
42.00000000 473.69350560 0.78456938
42.10000000 473.69350560 0.78456938
42.20000000 473.69350560 0.78456938
42.30000000 473.69350560 0.78456938
42.40000000 473.69350560 0.78456938
42.50000000 473.69350560 0.78456938
42.60000000 473.69350560 0.78456938
42.70000000 473.69350560 0.78456938
42.80000000 473.69350560 0.78456938
42.90000000 473.69350560 0.78456938
43.00000000 473.69350560 0.78456938
43.10000000 473.69350560 0.78456938
43.20000000 473.69350560 0.78456938
43.30000000 473.69350560 0.78456938
43.40000000 473.69350560 0.78456938
43.50000000 473.69350560 0.78456938
43.60000000 473.69350560 0.78456938
43.70000000 473.69350560 0.78456938
43.80000000 473.69350560 0.78456938
43.90000000 474.00299648 0.78508198
44.00000000 474.00299648 0.78508198
44.10000000 474.00299648 0.78508198
44.20000000 474.01190592 0.78509674
44.30000000 474.01190592 0.78509674
44.40000000 474.01190592 0.78509674
44.50000000 474.01190592 0.78509674
44.60000000 474.01190592 0.78509674
44.70000000 474.01190592 0.78509674
44.80000000 474.01190592 0.78509674
44.90000000 474.01190592 0.78509674
45.00000000 474.01190592 0.78509674
45.10000000 474.01190592 0.78509674
45.20000000 474.01190592 0.78509674
45.30000000 474.01190592 0.78509674
45.40000000 474.01190592 0.78509674
45.50000000 474.02109216 0.78511195
45.60000000 474.02109216 0.78511195
45.70000000 474.02109216 0.78511195
45.80000000 474.02109216 0.78511195
45.90000000 474.02109216 0.78511195
46.00000000 474.07614504 0.78520314
46.10000000 474.07701336 0.78520458
46.20000000 474.07701336 0.78520458
46.30000000 474.07701336 0.78520458
46.40000000 474.07701336 0.78520458
46.50000000 474.07701336 0.78520458
46.60000000 474.07701336 0.78520458
46.70000000 474.07701336 0.78520458
46.80000000 474.07701336 0.78520458
46.90000000 474.07701336 0.78520458
47.00000000 474.07701336 0.78520458
47.10000000 474.08003648 0.78520958
47.20000000 474.08003648 0.78520958
47.30000000 474.08003648 0.78520958
47.40000000 474.08003648 0.78520958
47.50000000 474.08003648 0.78520958
47.60000000 474.08003648 0.78520958
47.70000000 474.08003648 0.78520958
47.80000000 474.08003648 0.78520958
47.90000000 474.08003648 0.78520958
48.00000000 474.08003648 0.78520958
48.10000000 474.08003648 0.78520958
48.20000000 474.08003648 0.78520958
48.30000000 474.08003648 0.78520958
48.40000000 474.08003648 0.78520958
48.50000000 474.08003648 0.78520958
48.60000000 474.08003648 0.78520958
48.70000000 474.08003648 0.78520958
48.80000000 474.18481360 0.78538312
48.90000000 474.18481360 0.78538312
49.00000000 474.18481360 0.78538312
49.10000000 474.18481360 0.78538312
49.20000000 474.18481360 0.78538312
49.30000000 474.18481360 0.78538312
49.40000000 474.18481360 0.78538312
49.50000000 474.18481360 0.78538312
49.60000000 474.18481360 0.78538312
49.70000000 474.20166344 0.78541103
49.80000000 474.20377560 0.78541453
49.90000000 474.20377560 0.78541453
50.00000000 474.20377560 0.78541453
50.10000000 474.20377560 0.78541453
50.20000000 474.20377560 0.78541453
50.30000000 474.20547952 0.78541735
50.40000000 474.21894672 0.78543966
50.50000000 474.21894672 0.78543966
50.60000000 474.21894672 0.78543966
50.70000000 474.21894672 0.78543966
50.80000000 474.21894672 0.78543966
50.90000000 474.21894672 0.78543966
51.00000000 474.21894672 0.78543966
51.10000000 474.21894672 0.78543966
51.20000000 474.28701872 0.78555240
51.30000000 474.28701872 0.78555240
51.40000000 474.28701872 0.78555240
51.50000000 474.28701872 0.78555240
51.60000000 474.28701872 0.78555240
51.70000000 474.29619824 0.78556761
51.80000000 474.29619824 0.78556761
51.90000000 474.29619824 0.78556761
52.00000000 474.29619824 0.78556761
52.10000000 474.29619824 0.78556761
52.20000000 474.33876176 0.78563810
52.30000000 474.33876176 0.78563810
52.40000000 474.35618968 0.78566697
52.50000000 474.45494232 0.78583053
52.60000000 474.45494232 0.78583053
52.70000000 474.45494232 0.78583053
52.80000000 474.45494232 0.78583053
52.90000000 474.52810488 0.78595171
53.00000000 474.52810488 0.78595171
53.10000000 474.52810488 0.78595171
53.20000000 474.52810488 0.78595171
53.30000000 474.52810488 0.78595171
53.40000000 474.52810488 0.78595171
53.50000000 474.52810488 0.78595171
53.60000000 474.52810488 0.78595171
53.70000000 474.52810488 0.78595171
53.80000000 474.57981080 0.78603735
53.90000000 474.57981080 0.78603735
54.00000000 474.57981080 0.78603735
54.10000000 474.58460096 0.78604528
54.20000000 474.58460096 0.78604528
54.30000000 474.59133472 0.78605644
54.40000000 474.59133472 0.78605644
54.50000000 474.59133472 0.78605644
54.60000000 474.59133472 0.78605644
54.70000000 474.59133472 0.78605644
54.80000000 474.59133472 0.78605644
54.90000000 474.59133472 0.78605644
55.00000000 474.59133472 0.78605644
55.10000000 474.59133472 0.78605644
55.20000000 474.59133472 0.78605644
55.30000000 474.59133472 0.78605644
55.40000000 474.59133472 0.78605644
55.50000000 474.59133472 0.78605644
55.60000000 474.59133472 0.78605644
55.70000000 474.59133472 0.78605644
55.80000000 474.59133472 0.78605644
55.90000000 474.59133472 0.78605644
56.00000000 474.59133472 0.78605644
56.10000000 474.59133472 0.78605644
56.20000000 474.71144992 0.78625538
56.30000000 474.71144992 0.78625538
56.40000000 474.71144992 0.78625538
56.50000000 474.81620656 0.78642889
56.60000000 474.81620656 0.78642889
56.70000000 474.81620656 0.78642889
56.80000000 474.89213808 0.78655465
56.90000000 474.89213808 0.78655465
57.00000000 474.89213808 0.78655465
57.10000000 474.89213808 0.78655465
57.20000000 474.89213808 0.78655465
57.30000000 474.89296208 0.78655602
57.40000000 474.89296208 0.78655602
57.50000000 474.89296208 0.78655602
57.60000000 474.89296208 0.78655602
57.70000000 474.89296208 0.78655602
57.80000000 475.05079964 0.78681744
57.90000000 475.05079964 0.78681744
58.00000000 475.05079964 0.78681744
58.10000000 475.10281508 0.78690359
58.20000000 475.10873564 0.78691340
58.30000000 475.10873564 0.78691340
58.40000000 475.10873564 0.78691340
58.50000000 475.10873564 0.78691340
58.60000000 475.10873564 0.78691340
58.70000000 475.10873564 0.78691340
58.80000000 475.11569804 0.78692493
58.90000000 475.14541396 0.78697415
59.00000000 475.14541396 0.78697415
59.10000000 475.15307284 0.78698683
59.20000000 475.15307284 0.78698683
59.30000000 475.15307284 0.78698683
59.40000000 475.15307284 0.78698683
59.50000000 475.19290324 0.78705280
59.60000000 475.21205428 0.78708452
59.70000000 475.25569268 0.78715680
59.80000000 475.26012820 0.78716415
59.90000000 475.26012820 0.78716415
60.00000000 475.26012820 0.78716415
60.10000000 475.26612716 0.78717408
60.20000000 475.26612716 0.78717408
60.30000000 475.26612716 0.78717408
60.40000000 475.26612716 0.78717408
60.50000000 475.26612716 0.78717408
60.60000000 475.27418300 0.78718742
60.70000000 475.27418300 0.78718742
60.80000000 475.27418300 0.78718742
60.90000000 475.27418300 0.78718742
61.00000000 475.39959056 0.78739513
61.10000000 475.39959056 0.78739513
61.20000000 475.40237424 0.78739975
61.30000000 475.40237424 0.78739975
61.40000000 475.40237424 0.78739975
61.50000000 475.40237424 0.78739975
61.60000000 475.40237424 0.78739975
61.70000000 475.40237424 0.78739975
61.80000000 475.40434632 0.78740301
61.90000000 475.40434632 0.78740301
62.00000000 475.40434632 0.78740301
62.10000000 475.40434632 0.78740301
62.20000000 475.40434632 0.78740301
62.30000000 475.40434632 0.78740301
62.40000000 475.40517808 0.78740439
62.50000000 475.40517808 0.78740439
62.60000000 475.40517808 0.78740439
62.70000000 475.40517808 0.78740439
62.80000000 475.40517808 0.78740439
62.90000000 475.40517808 0.78740439
63.00000000 475.40517808 0.78740439
63.10000000 475.40517808 0.78740439
63.20000000 475.40517808 0.78740439
63.30000000 475.40517808 0.78740439
63.40000000 475.40517808 0.78740439
63.50000000 475.40517808 0.78740439
63.60000000 475.54900528 0.78764261
63.70000000 475.54900528 0.78764261
63.80000000 475.54900528 0.78764261
63.90000000 475.54900528 0.78764261
64.00000000 475.54900528 0.78764261
64.10000000 475.54900528 0.78764261
64.20000000 475.54900528 0.78764261
64.30000000 475.54900528 0.78764261
64.40000000 475.54900528 0.78764261
64.50000000 475.54900528 0.78764261
64.60000000 475.54900528 0.78764261
64.70000000 475.54900528 0.78764261
64.80000000 475.54900528 0.78764261
64.90000000 475.54900528 0.78764261
65.00000000 483.54869224 0.80089233
65.10000000 483.54869224 0.80089233
65.20000000 483.57028680 0.80092810
65.30000000 483.57028680 0.80092810
65.40000000 483.57028680 0.80092810
65.50000000 483.57211312 0.80093113
65.60000000 491.57176272 0.81418079
65.70000000 491.57176272 0.81418079
65.80000000 491.57176272 0.81418079
65.90000000 491.57176272 0.81418079
66.00000000 491.57176272 0.81418079
66.10000000 491.57176272 0.81418079
66.20000000 491.57176272 0.81418079
66.30000000 499.57136848 0.82743038
66.40000000 499.57136848 0.82743038
66.50000000 499.57136848 0.82743038
66.60000000 499.57136848 0.82743038
66.70000000 499.57136848 0.82743038
66.80000000 499.67763280 0.82760639
66.90000000 507.67718672 0.84085589
67.00000000 507.67718672 0.84085589
67.10000000 507.67718672 0.84085589
67.20000000 507.67718672 0.84085589
67.30000000 507.67718672 0.84085589
67.40000000 507.67718672 0.84085589
67.50000000 507.67937576 0.84085952
67.60000000 507.69595768 0.84088698
67.70000000 507.69595768 0.84088698
67.80000000 507.69595768 0.84088698
67.90000000 507.69595768 0.84088698
68.00000000 507.69595768 0.84088698
68.10000000 507.69595768 0.84088698
68.20000000 507.69595768 0.84088698
68.30000000 507.69595768 0.84088698
68.40000000 507.69595768 0.84088698
68.50000000 507.69595768 0.84088698
68.60000000 507.69595768 0.84088698
68.70000000 507.69595768 0.84088698
68.80000000 507.69595768 0.84088698
68.90000000 507.69595768 0.84088698
69.00000000 515.69528464 0.85413611
69.10000000 515.69528464 0.85413611
69.20000000 515.69528464 0.85413611
69.30000000 515.69528464 0.85413611
69.40000000 515.69528464 0.85413611
69.50000000 515.69528464 0.85413611
69.60000000 515.69528464 0.85413611
69.70000000 539.69293000 0.89388295
69.80000000 539.69293000 0.89388295
69.90000000 539.69293000 0.89388295
70.00000000 539.69293000 0.89388295
70.10000000 539.69293000 0.89388295
70.20000000 542.64604880 0.89877414
70.30000000 542.64604880 0.89877414
70.40000000 542.64604880 0.89877414
70.50000000 542.64604880 0.89877414
70.60000000 542.64604880 0.89877414
70.70000000 542.64604880 0.89877414
70.80000000 542.64604880 0.89877414
70.90000000 542.64604880 0.89877414
71.00000000 542.64604880 0.89877414
71.10000000 542.64604880 0.89877414
71.20000000 550.64590448 0.91202415
71.30000000 550.64590448 0.91202415
71.40000000 550.64590448 0.91202415
71.50000000 550.64590448 0.91202415
71.60000000 550.64590448 0.91202415
71.70000000 550.64590448 0.91202415
71.80000000 550.64590448 0.91202415
71.90000000 550.64590448 0.91202415
72.00000000 550.64590448 0.91202415
72.10000000 550.64590448 0.91202415
72.20000000 550.64590448 0.91202415
72.30000000 550.64590448 0.91202415
72.40000000 550.64590448 0.91202415
72.50000000 550.64590448 0.91202415
72.60000000 550.64590448 0.91202415
72.70000000 550.64590448 0.91202415
72.80000000 554.64508516 0.91864791
72.90000000 554.64508516 0.91864791
73.00000000 554.64508516 0.91864791
73.10000000 554.64508516 0.91864791
73.20000000 554.64508516 0.91864791
73.30000000 554.64508516 0.91864791
73.40000000 554.64508516 0.91864791
73.50000000 554.64508516 0.91864791
73.60000000 554.64508516 0.91864791
73.70000000 570.64097508 0.94514160
73.80000000 570.64097508 0.94514160
73.90000000 570.64097508 0.94514160
74.00000000 570.64904388 0.94515496
74.10000000 570.64904388 0.94515496
74.20000000 570.64904388 0.94515496
74.30000000 570.64904388 0.94515496
74.40000000 570.64904388 0.94515496
74.50000000 570.64904388 0.94515496
74.60000000 578.64640212 0.95840083
74.70000000 578.64640212 0.95840083
74.80000000 578.64640212 0.95840083
74.90000000 578.64640212 0.95840083
75.00000000 578.64640212 0.95840083
75.10000000 578.64640212 0.95840083
75.20000000 578.64640212 0.95840083
75.30000000 578.64640212 0.95840083
75.40000000 578.64640212 0.95840083
75.50000000 578.64640212 0.95840083
75.60000000 578.64640212 0.95840083
75.70000000 578.64640212 0.95840083
75.80000000 578.64640212 0.95840083
75.90000000 578.65287964 0.95841156
76.00000000 578.65287964 0.95841156
76.10000000 578.65287964 0.95841156
76.20000000 578.65287964 0.95841156
76.30000000 578.65287964 0.95841156
76.40000000 578.65287964 0.95841156
76.50000000 586.64803780 0.97165378
76.60000000 586.64803780 0.97165378
76.70000000 586.64803780 0.97165378
76.80000000 586.64803780 0.97165378
76.90000000 586.64803780 0.97165378
77.00000000 586.64803780 0.97165378
77.10000000 586.64803780 0.97165378
77.20000000 586.64803780 0.97165378
77.30000000 586.64803780 0.97165378
77.40000000 586.64803780 0.97165378
77.50000000 586.64803780 0.97165378
77.60000000 594.64096332 0.98489231
77.70000000 594.64096332 0.98489231
77.80000000 594.64096332 0.98489231
77.90000000 594.64096332 0.98489231
78.00000000 594.64096332 0.98489231
78.10000000 594.64096332 0.98489231
78.20000000 594.64096332 0.98489231
78.30000000 594.64096332 0.98489231
78.40000000 594.64096332 0.98489231
78.50000000 594.64096332 0.98489231
78.60000000 594.64096332 0.98489231
78.70000000 594.64096332 0.98489231
78.80000000 594.64096332 0.98489231
78.90000000 594.64096332 0.98489231
79.00000000 594.64096332 0.98489231
79.10000000 594.64096332 0.98489231
79.20000000 594.65905308 0.98492227
79.30000000 594.65905308 0.98492227
79.40000000 594.65905308 0.98492227
79.50000000 594.67190364 0.98494356
79.60000000 594.67190364 0.98494356
79.70000000 594.67190364 0.98494356
79.80000000 594.67190364 0.98494356
79.90000000 594.67190364 0.98494356
80.00000000 594.67190364 0.98494356
80.10000000 594.67190364 0.98494356
80.20000000 594.67190364 0.98494356
80.30000000 594.67190364 0.98494356
80.40000000 594.67190364 0.98494356
80.50000000 594.67190364 0.98494356
80.60000000 594.67190364 0.98494356
80.70000000 594.67190364 0.98494356
80.80000000 594.67190364 0.98494356
80.90000000 594.67190364 0.98494356
81.00000000 594.67190364 0.98494356
81.10000000 594.67190364 0.98494356
81.20000000 594.67190364 0.98494356
81.30000000 594.67190364 0.98494356
81.40000000 594.67190364 0.98494356
81.50000000 594.67190364 0.98494356
81.60000000 594.67190364 0.98494356
81.70000000 594.67190364 0.98494356
81.80000000 594.67190364 0.98494356
81.90000000 594.67190364 0.98494356
82.00000000 594.67190364 0.98494356
82.10000000 594.67190364 0.98494356
82.20000000 594.67190364 0.98494356
82.30000000 594.68364208 0.98496300
82.40000000 594.68364208 0.98496300
82.50000000 594.68364208 0.98496300
82.60000000 594.68364208 0.98496300
82.70000000 594.68364208 0.98496300
82.80000000 594.68656192 0.98496784
82.90000000 594.68656192 0.98496784
83.00000000 594.68656192 0.98496784
83.10000000 594.68656192 0.98496784
83.20000000 595.31655072 0.98601127
83.30000000 595.31655072 0.98601127
83.40000000 595.31655072 0.98601127
83.50000000 603.13597920 0.99896244
83.60000000 603.13597920 0.99896244
83.70000000 603.13597920 0.99896244
83.80000000 603.13597920 0.99896244
83.90000000 603.13597920 0.99896244
84.00000000 603.13597920 0.99896244
84.10000000 603.13597920 0.99896244
84.20000000 603.13597920 0.99896244
84.30000000 603.13841440 0.99896647
84.40000000 603.13841440 0.99896647
84.50000000 603.19233192 0.99905578
84.60000000 603.19233192 0.99905578
84.70000000 603.19233192 0.99905578
84.80000000 603.19233192 0.99905578
84.90000000 603.19233192 0.99905578
85.00000000 603.19233192 0.99905578
85.10000000 603.19233192 0.99905578
85.20000000 603.19233192 0.99905578
85.30000000 603.19233192 0.99905578
85.40000000 603.19233192 0.99905578
85.50000000 603.19233192 0.99905578
85.60000000 603.19233192 0.99905578
85.70000000 603.39489288 0.99939127
85.80000000 603.39489288 0.99939127
85.90000000 603.39489288 0.99939127
86.00000000 603.39489288 0.99939127
86.10000000 603.39489288 0.99939127
86.20000000 603.39489288 0.99939127
86.30000000 603.39489288 0.99939127
86.40000000 603.39489288 0.99939127
86.50000000 603.39489288 0.99939127
86.60000000 603.39489288 0.99939127
86.70000000 603.39489288 0.99939127
86.80000000 603.39489288 0.99939127
86.90000000 603.39757336 0.99939571
87.00000000 603.39757336 0.99939571
87.10000000 603.39757336 0.99939571
87.20000000 603.42753456 0.99944534
87.30000000 603.42753456 0.99944534
87.40000000 603.42753456 0.99944534
87.50000000 603.42753456 0.99944534
87.60000000 603.42753456 0.99944534
87.70000000 603.42753456 0.99944534
87.80000000 603.42753456 0.99944534
87.90000000 603.56492184 0.99967289
88.00000000 603.56492184 0.99967289
88.10000000 603.56492184 0.99967289
88.20000000 603.56666992 0.99967579
88.30000000 603.56666992 0.99967579
88.40000000 603.56666992 0.99967579
88.50000000 603.56666992 0.99967579
88.60000000 603.56666992 0.99967579
88.70000000 603.56666992 0.99967579
88.80000000 603.56666992 0.99967579
88.90000000 603.56666992 0.99967579
89.00000000 603.56666992 0.99967579
89.10000000 603.56865576 0.99967908
89.20000000 603.56865576 0.99967908
89.30000000 603.56865576 0.99967908
89.40000000 603.56865576 0.99967908
89.50000000 603.56865576 0.99967908
89.60000000 603.56865576 0.99967908
89.70000000 603.56865576 0.99967908
89.80000000 603.76241816 1.00000000
89.90000000 603.76241816 1.00000000
90.00000000 603.76241816 1.00000000
